Data from dark_retry_no_cap_MAYP1115451__0__09-41-39-330.txt Node

Date: Thu Jun 13 09:41:39 MDT 2024
User: Modes Lab
Spectrometer: MAYP111545
Trigger mode: 0
Integration Time (sec): 8.000000E-3
Scans to average: 5
Electric dark correction enabled: true
Nonlinearity correction enabled: false
Boxcar width: 5
XAxis mode: Wavelengths
Number of Pixels in Spectrum: 2068
>>>>>Begin Spectral Data<<<<<
165.214	153.87
165.449	147.51
165.683	148.82
165.918	151.21
166.152	152.07
166.387	153.31
166.621	76.75
166.856	108.18
167.09	119.28
167.325	134.58
167.559	145.31
167.794	155.48
168.028	159.55
168.263	159.09
168.497	157.46
168.732	158.02
168.966	157.18
169.2	156.93
169.435	156.64
169.669	156.95
169.903	157.44
170.138	157.09
170.372	156.71
170.606	156.75
170.841	156.75
171.075	156.75
171.309	156.08
171.544	156.17
171.778	156.11
172.012	155.53
172.246	154.6
172.48	154.98
172.715	154.6
172.949	154.68
173.183	155.29
173.417	155.49
173.651	155.88
173.885	156.24
174.119	155.97
174.354	156.29
174.588	156.04
174.822	156.4
175.056	155.48
175.29	155.73
175.524	155.97
175.758	156.11
175.992	155.98
176.226	155.89
176.46	155.55
176.694	156.17
176.928	156.33
177.162	157.04
177.396	157.31
177.63	158
177.864	158.35
178.097	158
178.331	157.69
178.565	158.58
178.799	158.69
179.033	159.15
179.267	159
179.5	158.26
179.734	158.02
179.968	158.35
180.202	158.66
180.436	158.31
180.669	158.64
180.903	157.91
181.137	156.77
181.371	157.31
181.604	156.13
181.838	155.68
182.072	156.53
182.305	156.91
182.539	155.73
182.772	154.09
183.006	154.78
183.24	154
183.473	156.42
183.707	157.02
183.94	156.37
184.174	156.69
184.408	156.35
184.641	155.68
184.875	155.06
185.108	155.62
185.342	157.11
185.575	156.68
185.808	158.02
186.042	156.24
186.275	156.31
186.509	156.17
186.742	156.66
186.976	156.95
187.209	157.62
187.442	157.09
187.676	156.51
187.909	155.8
188.142	155.55
188.376	154.93
188.609	154.88
188.842	154.38
189.076	154.8
189.309	154.57
189.542	154.6
189.775	154.68
190.009	156.55
190.242	157.38
190.475	157.24
190.708	157.29
190.941	156.49
191.174	156.37
191.408	155.98
191.641	155.98
191.874	156.42
192.107	156.69
192.34	156.24
192.573	155.44
192.806	155.31
193.039	154.95
193.272	155.06
193.505	155.71
193.738	155.91
193.971	156.49
194.204	156.04
194.437	155.15
194.67	155.18
194.903	155.62
195.136	155.2
195.369	155.48
195.602	155.35
195.835	155.48
196.068	155.66
196.301	155.58
196.533	155.38
196.766	154.93
196.999	155.18
197.232	155.38
197.465	154.02
197.698	153.44
197.93	152.68
198.163	152.69
198.396	152.71
198.629	153.02
198.861	152.62
199.094	152.91
199.327	153.31
199.559	153.11
199.792	151.95
200.025	153.11
200.257	153.84
200.49	154.42
200.723	154.89
200.955	154.89
201.188	153.93
201.42	153.77
201.653	153.64
201.886	153.86
202.118	154.26
202.351	155.35
202.583	155.73
202.816	155.33
203.048	155.71
203.281	155.73
203.513	155.6
203.745	156.6
203.978	156.91
204.21	156.77
204.443	156.68
204.675	155.46
204.907	155.82
205.14	154.89
205.372	155.68
205.605	155.73
205.837	156.35
206.069	156.51
206.302	156.08
206.534	155.6
206.766	155.77
206.998	155.84
207.231	157.09
207.463	156.37
207.695	157.97
207.927	157.15
208.159	156.8
208.392	155.97
208.624	155.75
208.856	155.02
209.088	155.88
209.32	155.64
209.552	155.49
209.784	155.28
210.017	155.98
210.249	155.04
210.481	155.13
210.713	154.31
210.945	154.75
211.177	154.97
211.409	155.57
211.641	155.24
211.873	155.02
212.105	155.11
212.337	155.53
212.569	154.86
212.801	154.49
213.033	154.26
213.264	154.58
213.496	154.55
213.728	154.26
213.96	154.75
214.192	153.88
214.424	154.24
214.656	154.69
214.887	154.6
215.119	155
215.351	155.57
215.583	155.95
215.815	156.8
216.046	156.86
216.278	157.13
216.51	157
216.741	157.97
216.973	158.22
217.205	158.4
217.436	158.28
217.668	158.78
217.9	158.33
218.131	158.28
218.363	158.38
218.595	158.4
218.826	158.08
219.058	157.84
219.289	157.26
219.521	157.68
219.752	157.78
219.984	158.4
220.215	157.35
220.447	157.44
220.678	157.37
220.91	156.69
221.141	157.22
221.373	157.13
221.604	157.37
221.836	158.64
222.067	158.4
222.298	157.88
222.53	157.53
222.761	158.71
222.993	158.57
223.224	159.13
223.455	159.95
223.686	159.22
223.918	159.09
224.149	159.33
224.38	158.44
224.612	157.55
224.843	157.73
225.074	158.4
225.305	158.29
225.536	158.48
225.768	158.93
225.999	158.49
226.23	158.8
226.461	159.37
226.692	158.35
226.923	158.22
227.155	159.38
227.386	159.44
227.617	157.84
227.848	156.71
228.079	157.29
228.31	156.86
228.541	156.84
228.772	157.44
229.003	157.35
229.234	157.37
229.465	158.02
229.696	157.04
229.927	156.82
230.158	157.58
230.389	157.88
230.62	158.06
230.85	157.88
231.081	156.4
231.312	155.55
231.543	155.68
231.774	156.13
232.005	156.08
232.236	156.02
232.466	156
232.697	155.93
232.928	156.09
233.159	155.73
233.389	156.2
233.62	156.69
233.851	156.98
234.082	156.51
234.312	156.35
234.543	156.02
234.774	155.78
235.004	156.11
235.235	156.06
235.466	156.15
235.696	156.33
235.927	155.57
236.157	155.62
236.388	156.09
236.618	156.44
236.849	156.93
237.08	157.11
237.31	158.18
237.541	157.24
237.771	156.62
238.002	155.89
238.232	155.8
238.463	156.38
238.693	157.58
238.923	156.95
239.154	156.62
239.384	156.17
239.615	155.91
239.845	155.73
240.075	156.22
240.306	156.97
240.536	156.98
240.766	157
240.997	155.73
241.227	155.48
241.457	155.35
241.687	155.8
241.918	156.15
242.148	155.86
242.378	155.42
242.608	154.46
242.839	154.26
243.069	153.91
243.299	152.95
243.529	156.08
243.759	155.86
243.989	156.4
244.22	156.55
244.45	156.38
244.68	156.71
244.91	157.15
245.14	158.31
245.37	158.18
245.6	159.49
245.83	159.71
246.06	158.06
246.29	158
246.52	157.51
246.75	157.31
246.98	157.62
247.21	157.71
247.44	157.35
247.67	156.78
247.9	157.06
248.13	156.75
248.359	157.49
248.589	156.55
248.819	156.28
249.049	156.2
249.279	156.44
249.509	156.37
249.738	156.4
249.968	156.38
250.198	156.98
250.428	156.62
250.657	156.24
250.887	155.97
251.117	156.26
251.347	156.2
251.576	156.02
251.806	156.09
252.036	156.11
252.265	156.35
252.495	156.58
252.725	156.28
252.954	156.69
253.184	156.6
253.413	156.8
253.643	157.08
253.873	157.64
254.102	157.91
254.332	157.69
254.561	157.29
254.791	156.84
255.02	156.42
255.25	156.35
255.479	156.31
255.708	156.95
255.938	156.37
256.167	155.71
256.397	154.69
256.626	153.89
256.856	154.06
257.085	154.73
257.314	154.09
257.544	155.22
257.773	155.15
258.002	154.37
258.232	153.91
258.461	154.24
258.69	154.62
258.919	154.44
259.149	154.6
259.378	154.02
259.607	152.69
259.836	153.06
260.065	152.18
260.295	152.15
260.524	152.11
260.753	152.24
260.982	152.26
261.211	152.02
261.44	152.35
261.669	152.6
261.899	152.78
262.128	153.48
262.357	153.44
262.586	153.06
262.815	152.93
263.044	153.42
263.273	155.24
263.502	154.93
263.731	154.15
263.96	153.55
264.189	153.18
264.418	152.6
264.646	152.22
264.875	152.31
265.104	152.26
265.333	152.09
265.562	152.06
265.791	149.73
266.02	148.6
266.249	149.15
266.477	150.18
266.706	149.48
266.935	149.4
267.164	149.29
267.393	150.37
267.621	150.46
267.85	151.26
268.079	150.88
268.307	150.82
268.536	150.71
268.765	151.24
268.993	150.78
269.222	151.35
269.451	151.49
269.679	151.55
269.908	150.44
270.137	149.77
270.365	148.33
270.594	149.24
270.822	149.4
271.051	149.89
271.279	149.44
271.508	149.35
271.736	149.8
271.965	149.82
272.193	149.77
272.422	149.82
272.65	150.6
272.879	150.64
273.107	149.78
273.336	149.48
273.564	149.69
273.792	149.82
274.021	150.42
274.249	150.57
274.477	150.24
274.706	150.17
274.934	150.11
275.162	149.69
275.391	150.88
275.619	150.84
275.847	150.98
276.075	151.57
276.304	151.68
276.532	151.22
276.76	150.46
276.988	150.46
277.216	150.64
277.445	149.93
277.673	149.6
277.901	149.37
278.129	149.6
278.357	149.68
278.585	148.97
278.813	148.46
279.041	148.29
279.269	148.82
279.497	149.28
279.725	148.73
279.954	149.48
280.182	149.82
280.41	149.04
280.637	149.26
280.865	148.73
281.093	148.29
281.321	148.28
281.549	147.93
281.777	147.62
282.005	147.73
282.233	148.31
282.461	148.17
282.689	148.49
282.916	149.33
283.144	148.6
283.372	149.17
283.6	149.44
283.828	149
284.055	148.8
284.283	149.2
284.511	149.22
284.739	149.08
284.966	149.49
285.194	149.4
285.422	148.38
285.649	148.35
285.877	147.17
286.105	147.04
286.332	147.58
286.56	149.11
286.788	148.62
287.015	148.02
287.243	148.46
287.47	147.93
287.698	148
287.925	148.13
288.153	148.48
288.381	148.98
288.608	149.91
288.836	150.15
289.063	149.4
289.29	149.38
289.518	149.64
289.745	149.06
289.973	148.69
290.2	148.98
290.428	149.06
290.655	148.06
290.882	148.38
291.11	147.8
291.337	146.97
291.564	147.29
291.792	147.22
292.019	146.69
292.246	146.95
292.473	147.53
292.701	147.02
292.928	147.26
293.155	148.09
293.382	148.28
293.61	147.93
293.837	148.69
294.064	148.11
294.291	148.33
294.518	148.42
294.745	147.8
294.972	147.77
295.2	148.18
295.427	148.35
295.654	148.6
295.881	148.26
296.108	148.53
296.335	147.8
296.562	148.33
296.789	148.15
297.016	148.46
297.243	148.42
297.47	148.15
297.697	147.69
297.924	147.57
298.151	146.53
298.378	146.33
298.604	146.35
298.831	146.95
299.058	146.75
299.285	146.71
299.512	146.6
299.739	146.68
299.966	146.28
300.192	145.69
300.419	145.84
300.646	145.97
300.873	145.6
301.099	145.17
301.326	144.18
301.553	143.62
301.78	144.28
302.006	144.51
302.233	145.18
302.46	145.8
302.686	145.89
302.913	145.68
303.14	146.49
303.366	146.75
303.593	147.33
303.819	148
304.046	147.8
304.272	147.8
304.499	147.75
304.725	147.62
304.952	147.2
305.179	146.84
305.405	147.29
305.631	147.06
305.858	148.71
306.084	147.98
306.311	148.64
306.537	148.51
306.764	148.02
306.99	148.44
307.216	148.55
307.443	148.58
307.669	149.73
307.895	149.28
308.122	148.68
308.348	146.58
308.574	146.6
308.801	146.13
309.027	146.49
309.253	146.57
309.479	146.11
309.706	145.38
309.932	144.93
310.158	144.15
310.384	143.49
310.61	144.17
310.837	144.68
311.063	145.04
311.289	144.57
311.515	144.42
311.741	143.35
311.967	143.95
312.193	144.49
312.419	144.69
312.645	145.09
312.871	145.6
313.097	145.31
313.323	145.26
313.549	145.84
313.775	146.02
314.001	145.66
314.227	146.48
314.453	145.64
314.679	145.42
314.905	145.13
315.131	144.11
315.357	144.37
315.583	144.35
315.809	143.93
316.034	143.11
316.26	142.93
316.486	143.38
316.712	143.51
316.938	143.11
317.163	143.17
317.389	143.57
317.615	145.51
317.841	144.97
318.066	145.35
318.292	145.84
318.518	145.28
318.743	144.89
318.969	145.18
319.195	145.13
319.42	144.97
319.646	145.06
319.872	144.62
320.097	143.64
320.323	143.93
320.548	144.2
320.774	145.06
320.999	145.2
321.225	146.08
321.45	145.38
321.676	145.57
321.901	146.18
322.127	145.93
322.352	146.31
322.578	146.15
322.803	146.98
323.029	146.28
323.254	145.2
323.479	145.44
323.705	145.22
323.93	145.18
324.155	145.11
324.381	145.22
324.606	145.37
324.831	146.11
325.057	146.09
325.282	145.33
325.507	145.69
325.732	146.09
325.958	146.24
326.183	146.06
326.408	146.26
326.633	146.77
326.858	146.77
327.084	146.62
327.309	146.04
327.534	146.37
327.759	145.93
327.984	145.84
328.209	145.49
328.434	144.95
328.659	145.38
328.884	146.31
329.109	145.18
329.334	144.8
329.559	144.4
329.784	143.78
330.009	143.28
330.234	143.58
330.459	143.49
330.684	143.48
330.909	144.18
331.134	143.37
331.359	142.69
331.584	143.57
331.809	143.42
332.034	143.48
332.259	143.13
332.483	142.58
332.708	142.26
332.933	142.66
333.158	143
333.383	143.46
333.607	143.69
333.832	143.82
334.057	143.02
334.282	142.71
334.506	142.58
334.731	143.09
334.956	144.29
335.18	144.69
335.405	144.18
335.63	144.62
335.854	144.13
336.079	144.13
336.303	144.37
336.528	144.15
336.753	144.53
336.977	144.68
337.202	144.49
337.426	144.02
337.651	143.58
337.875	143.13
338.1	142.95
338.324	142.91
338.549	143.71
338.773	143.17
338.997	143.82
339.222	143.26
339.446	143.18
339.671	143.71
339.895	143.31
340.119	143.91
340.344	144.18
340.568	143.64
340.792	143.73
341.017	143.18
341.241	142.93
341.465	142.29
341.689	142.91
341.914	142.97
342.138	142.98
342.362	143.64
342.586	142.84
342.811	142.68
343.035	142.6
343.259	141.66
343.483	141.97
343.707	141.78
343.931	142.73
344.155	142.73
344.38	142.8
344.604	142.28
344.828	141.62
345.052	142.22
345.276	142.33
345.5	142.33
345.724	143.15
345.948	142.51
346.172	143.02
346.396	142.37
346.62	143.86
346.844	144
347.068	144.51
347.292	144.51
347.515	144.51
347.739	146.29
347.963	145.66
348.187	145.84
348.411	145.91
348.635	145.24
348.859	145.13
349.082	144.31
349.306	143.68
349.53	142.68
349.754	142.95
349.977	142.02
350.201	140.77
350.425	142.04
350.649	141.44
350.872	141.28
351.096	140.95
351.32	141.22
351.543	140.28
351.767	140.58
351.99	140.95
352.214	140.88
352.438	141.06
352.661	140.06
352.885	139.49
353.108	139.31
353.332	139.24
353.555	139.2
353.779	139.24
354.002	139.44
354.226	138.95
354.449	139.57
354.673	139.31
354.896	139.48
355.12	140.11
355.343	139.48
355.566	140.24
355.79	140.28
356.013	141.58
356.237	141.35
356.46	141.31
356.683	141.89
356.907	141.26
357.13	141.24
357.353	141.17
357.576	140.69
357.8	141.75
358.023	141.08
358.246	141.22
358.469	139.93
358.693	140.11
358.916	140.44
359.139	140.98
359.362	141.24
359.585	140.91
359.808	141.18
360.031	141
360.255	141.09
360.478	141.22
360.701	141.2
360.924	141.97
361.147	142.11
361.37	141.84
361.593	142.26
361.816	142.17
362.039	142.78
362.262	142.97
362.485	143.04
362.708	142.46
362.931	142.68
363.154	142.8
363.377	142.49
363.599	142.49
363.822	142.48
364.045	142
364.268	142.2
364.491	141.91
364.714	141.95
364.936	141.4
365.159	141.73
365.382	141.38
365.605	141.84
365.828	143.09
366.05	142.84
366.273	142.78
366.496	142.73
366.718	142.86
366.941	142.71
367.164	142.89
367.386	143.62
367.609	143.57
367.832	143.88
368.054	143.37
368.277	143.13
368.5	143.58
368.722	143.2
368.945	142.93
369.167	142.78
369.39	142.69
369.612	142.2
369.835	142.11
370.057	142.26
370.28	142.06
370.502	142.11
370.725	141.57
370.947	141.28
371.169	141.35
371.392	141.53
371.614	141.78
371.837	142.13
372.059	142.24
372.281	142.04
372.504	141.91
372.726	141.84
372.948	141.38
373.171	140.97
373.393	140.68
373.615	140.55
373.837	140.69
374.06	139.58
374.282	139.49
374.504	140.13
374.726	140.71
374.948	140.06
375.17	140.17
375.393	140.17
375.615	140.6
375.837	141.02
376.059	141.26
376.281	141.02
376.503	141.88
376.725	141.78
376.947	140.93
377.169	140.88
377.391	141.33
377.613	142.26
377.835	142.93
378.057	143.28
378.279	142.93
378.501	143.26
378.723	142.58
378.945	142.62
379.167	142.4
379.389	142.58
379.611	142.22
379.833	142.29
380.054	141.6
380.276	141.68
380.498	140.8
380.72	140.49
380.942	140.37
381.163	140.62
381.385	140.93
381.607	141.37
381.829	140.78
382.05	141.53
382.272	141.82
382.494	141.73
382.716	141.09
382.937	141.18
383.159	141.75
383.381	142.46
383.602	142.84
383.824	142.6
384.045	142.53
384.267	143
384.488	141.91
384.71	141.44
384.932	141.09
385.153	140.8
385.375	141.69
385.596	140.84
385.818	140.2
386.039	138.95
386.261	139.24
386.482	139.15
386.703	138.69
386.925	138.89
387.146	139.08
387.368	139.22
387.589	139.84
387.81	138.71
388.032	139.13
388.253	139.09
388.474	140.31
388.696	139.73
388.917	139.97
389.138	140.29
389.359	139.98
389.581	139.97
389.802	140.38
390.023	140.31
390.244	140.71
390.465	141.08
390.687	140.66
390.908	140.28
391.129	140.89
391.35	140.58
391.571	140.89
391.792	141.57
392.013	140.75
392.234	140.89
392.455	140.8
392.677	140
392.898	139.29
393.119	139.68
393.34	139.42
393.561	138.69
393.782	138.4
394.003	138.44
394.223	137.97
394.444	138.2
394.665	137.51
394.886	137.6
395.107	139.08
395.328	139.48
395.549	139.26
395.77	139.31
395.99	139.57
396.211	140.22
396.432	140.48
396.653	141.31
396.874	141.82
397.094	141.33
397.315	141.38
397.536	140.09
397.757	140.09
397.977	139.82
398.198	139.55
398.419	139.44
398.639	138.97
398.86	138.57
399.081	137.91
399.301	138.11
399.522	138.75
399.742	138.48
399.963	138.73
400.184	138.58
400.404	138.49
400.625	138.37
400.845	138.82
401.066	138.62
401.286	138.77
401.507	138.66
401.727	138.28
401.948	138.18
402.168	137.73
402.388	137.73
402.609	137.89
402.829	138.57
403.05	139.91
403.27	138.95
403.49	139.35
403.711	138.93
403.931	139.2
404.151	139.08
404.372	139.33
404.592	140.53
404.812	141.09
405.032	141.22
405.253	141.09
405.473	140.88
405.693	141.75
405.913	141.69
406.133	141.55
406.353	144.77
406.574	145.02
406.794	144.89
407.014	143.89
407.234	143.13
407.454	142.95
407.674	143.02
407.894	142.75
408.114	142.37
408.334	142.48
408.554	143.17
408.774	139.82
408.994	139.15
409.214	139.02
409.434	139.29
409.654	139.88
409.874	140.29
410.094	140.29
410.314	139.89
410.534	140.53
410.754	140.28
410.974	140.04
411.193	139.49
411.413	139.78
411.633	139.33
411.853	139.75
412.073	139.44
412.292	138.89
412.512	138.62
412.732	139.28
412.952	138.55
413.171	139.04
413.391	138.86
413.611	140.31
413.831	140.09
414.05	140.4
414.27	139.98
414.489	140.31
414.709	140.49
414.929	140.38
415.148	139.86
415.368	139.4
415.587	139.15
415.807	138.57
416.026	137.73
416.246	137.75
416.465	137.29
416.685	137.35
416.904	137.08
417.124	136.93
417.343	137.88
417.563	137.84
417.782	138.33
418.002	138.58
418.221	139.29
418.44	139.44
418.66	138.86
418.879	139.86
419.098	140.04
419.318	139.69
419.537	139.95
419.756	139.35
419.976	139.46
420.195	139.37
420.414	138.8
420.633	138.71
420.853	138.84
421.072	139.73
421.291	139.68
421.51	138.66
421.729	138.42
421.948	138.2
422.168	137.51
422.387	137.13
422.606	137.33
422.825	137.82
423.044	137.04
423.263	136.22
423.482	135.78
423.701	135.15
423.92	135.33
424.139	136.15
424.358	135.71
424.577	135.91
424.796	135.89
425.015	135.51
425.234	135.38
425.453	135.73
425.672	136.06
425.891	135.98
426.11	135.8
426.328	135.78
426.547	135.15
426.766	135.51
426.985	136.06
427.204	136.73
427.422	136.53
427.641	135.91
427.86	136.37
428.079	136.46
428.297	136.24
428.516	136.42
428.735	136.97
428.954	136.98
429.172	136.49
429.391	136.2
429.61	135.73
429.828	136.11
430.047	137.24
430.265	137.11
430.484	136.69
430.703	136.95
430.921	137.37
431.14	136.91
431.358	137.15
431.577	138.15
431.795	138.22
432.014	138.22
432.232	138.77
432.451	138.06
432.669	138.28
432.887	138.17
433.106	137.77
433.324	137.98
433.543	137.71
433.761	137.82
433.979	136.88
434.198	136.6
434.416	136.37
434.634	136.09
434.853	135.73
435.071	134.88
435.289	134.91
435.507	135.49
435.726	135.15
435.944	135.98
436.162	135.77
436.38	136.58
436.598	136.4
436.817	136.02
437.035	135.84
437.253	136.28
437.471	137.13
437.689	137.53
437.907	137.62
438.125	137.31
438.343	136.46
438.561	136.95
438.78	136.66
438.998	136.75
439.216	136.88
439.434	136.55
439.652	136.6
439.869	135.28
440.087	134.98
440.305	134.62
440.523	134.02
440.741	134.48
440.959	133.38
441.177	132.57
441.395	132.48
441.613	133.22
441.831	132.75
442.048	131.57
442.266	132.28
442.484	131.75
442.702	131.49
442.919	131.71
443.137	131.22
443.355	131.24
443.573	131.38
443.79	131.53
444.008	130.8
444.226	131.02
444.443	132.08
444.661	132
444.879	132.49
445.096	132.84
445.314	133.4
445.532	133.84
445.749	134.86
445.967	134.62
446.184	134.66
446.402	134.82
446.619	134.73
446.837	133.6
447.054	133.77
447.272	133
447.489	132.75
447.707	132.73
447.924	133.06
448.141	133.26
448.359	133.08
448.576	132.62
448.794	132.42
449.011	132
449.228	133.22
449.446	132.86
449.663	133.28
449.88	132.6
450.098	132.37
450.315	131.77
450.532	130.88
450.749	131.62
450.967	131.98
451.184	131.77
451.401	132.06
451.618	130.98
451.835	131.28
452.052	131.48
452.27	131.82
452.487	131.48
452.704	131.93
452.921	132.6
453.138	132.66
453.355	131.58
453.572	131.86
453.789	131.82
454.006	132.06
454.223	131.69
454.44	131.4
454.657	131.84
454.874	131.73
455.091	131.04
455.308	130.51
455.525	130.04
455.742	130.38
455.959	129.97
456.176	130.57
456.393	130.71
456.609	130.97
456.826	130.97
457.043	131.48
457.26	131.53
457.477	131.24
457.693	130.97
457.91	130.97
458.127	132.28
458.344	132.58
458.56	131.82
458.777	131.98
458.994	131.64
459.21	132.02
459.427	131
459.644	131.53
459.86	131.93
460.077	131.42
460.294	131.44
460.51	130.24
460.727	130.62
460.943	131.09
461.16	130.88
461.376	131.11
461.593	131.71
461.809	132.18
462.026	132.02
462.242	132.04
462.459	132.35
462.675	132.35
462.892	132.49
463.108	132.15
463.324	131.89
463.541	131.55
463.757	131.62
463.974	130.62
464.19	131.06
464.406	130.93
