Data from bluedw1d_MAYP1115451__0__11-08-44-040.txt Node

Date: Thu May 23 11:08:44 MDT 2024
User: Modes Lab
Spectrometer: MAYP111545
Trigger mode: 0
Integration Time (sec): 7.200000E-3
Scans to average: 5
Electric dark correction enabled: true
Nonlinearity correction enabled: false
Boxcar width: 5
XAxis mode: Wavelengths
Number of Pixels in Spectrum: 2068
>>>>>Begin Spectral Data<<<<<
165.214	5330.9
165.449	4587.7
165.683	4039.74
165.918	3614.89
166.152	3274.69
166.387	2996.43
166.621	103.43
166.856	138.67
167.09	154.14
167.325	174.23
167.559	189.23
167.794	202.19
168.028	209.76
168.263	210.23
168.497	209.98
168.732	210.68
168.966	211.14
169.2	210.94
169.435	212.41
169.669	213.1
169.903	214.81
170.138	215.25
170.372	215.74
170.606	216.76
170.841	217.52
171.075	218.56
171.309	218.79
171.544	218.38
171.778	219.14
172.012	218.23
172.246	218.39
172.48	217.79
172.715	218.47
172.949	219.68
173.183	219.18
173.417	220.14
173.651	219.94
173.885	220.27
174.119	221.27
174.354	221.16
174.588	221.87
174.822	222.18
175.056	222.1
175.29	222.85
175.524	222.58
175.758	222.72
175.992	222.56
176.226	223.03
176.46	222.87
176.694	224.23
176.928	225.05
177.162	226.05
177.396	227.54
177.63	228.94
177.864	229.85
178.097	231.16
178.331	233.12
178.565	235.03
178.799	237.07
179.033	238.94
179.267	238.45
179.5	240.21
179.734	240.76
179.968	242.12
180.202	242.43
180.436	244.54
180.669	246.05
180.903	247.01
181.137	248.36
181.371	249.03
181.604	251.48
181.838	255.72
182.072	259.39
182.305	263.79
182.539	268.74
182.772	274.94
183.006	279.94
183.24	285.61
183.473	295.99
183.707	303.98
183.94	313.68
184.174	324.67
184.408	336.56
184.641	349.67
184.875	362.68
185.108	376.72
185.342	392.36
185.575	409.74
185.808	430.07
186.042	451.41
186.275	475.03
186.509	498.25
186.742	520.76
186.976	543.21
187.209	566.48
187.442	593.23
187.676	623.07
187.909	655.1
188.142	689.78
188.376	722.76
188.609	752.45
188.842	784.43
189.076	816.18
189.309	849.78
189.542	887.36
189.775	928.92
190.009	972.19
190.242	1012.32
190.475	1052.92
190.708	1089.16
190.941	1125.81
191.174	1162.68
191.408	1200.25
191.641	1245.52
191.874	1294.41
192.107	1343.36
192.34	1389.28
192.573	1433.87
192.806	1482.21
193.039	1529.18
193.272	1580.03
193.505	1629.7
193.738	1681.23
193.971	1735.54
194.204	1786.98
194.437	1837.63
194.67	1885.07
194.903	1931.1
195.136	1982.92
195.369	2032.14
195.602	2084.63
195.835	2138.39
196.068	2196.43
196.301	2255.32
196.533	2313.52
196.766	2369.21
196.999	2423.63
197.232	2483.43
197.465	2545.56
197.698	2604.48
197.93	2665.16
198.163	2726.36
198.396	2788.59
198.629	2851.88
198.861	2916.12
199.094	2981.99
199.327	3049.36
199.559	3117.43
199.792	3185.92
200.025	3256.61
200.257	3329.12
200.49	3404.3
200.723	3479.23
200.955	3555.54
201.188	3634.45
201.42	3717.14
201.653	3799.7
201.886	3883.05
202.118	3974.03
202.351	4062.68
202.583	4154.45
202.816	4243.74
203.048	4334.25
203.281	4426.87
203.513	4524.32
203.745	4624.48
203.978	4723.83
204.21	4825.76
204.443	4933.21
204.675	5036.94
204.907	5145.56
205.14	5258.56
205.372	5374.25
205.605	5493.19
205.837	5614.43
206.069	5732.48
206.302	5856.54
206.534	5983.79
206.766	6114.98
206.998	6248.18
207.231	6387.98
207.463	6531.27
207.695	6671.81
207.927	6820.21
208.159	6965.9
208.392	7116.81
208.624	7272.23
208.856	7430.05
209.088	7585.1
209.32	7741.63
209.552	7901.74
209.784	8064.85
210.017	8228.07
210.249	8396.9
210.481	8565.39
210.713	8734.61
210.945	8914.19
211.177	9093.38
211.409	9270.47
211.641	9456.83
211.873	9645.83
212.105	9842.87
212.337	10039.59
212.569	10236.08
212.801	10439.07
213.033	10649.16
213.264	10864.59
213.496	11072.3
213.728	11291.21
213.96	11514.79
214.192	11739.99
214.424	11968.47
214.656	12200.63
214.887	12438.58
215.119	12682.12
215.351	12922.05
215.583	13163.9
215.815	13409.68
216.046	13663.7
216.278	13911.25
216.51	14165.68
216.741	14426.3
216.973	14684.61
217.205	14940.85
217.436	15193.99
217.668	15457.43
217.9	15720.65
218.131	15991.79
218.363	16273.7
218.595	16545.98
218.826	16831.25
219.058	17119.47
219.289	17401.58
219.521	17690.65
219.752	17979.85
219.984	18269.61
220.215	18558.14
220.447	18858.98
220.678	19154.99
220.91	19446.96
221.141	19750.61
221.373	20047.48
221.604	20350.72
221.836	20651.63
222.067	20960.92
222.298	21272.07
222.53	21593.32
222.761	21921.5
222.993	22243.63
223.224	22565.58
223.455	22894.39
223.686	23212.05
223.918	23543.3
224.149	23867.68
224.38	24198.76
224.612	24527.28
224.843	24864.07
225.074	25194.05
225.305	25519.52
225.536	25850.32
225.768	26179.48
225.999	26518.63
226.23	26853.96
226.461	27177.72
226.692	27510.74
226.923	27851.85
227.155	28191.76
227.386	28523.38
227.617	28855.39
227.848	29195.21
228.079	29533.25
228.31	29876.07
228.541	30214.3
228.772	30558.78
229.003	30905.39
229.234	31248.05
229.465	31588.67
229.696	31925.78
229.927	32273.3
230.158	32607.74
230.389	32935.01
230.62	33265.38
230.85	33597.25
231.081	33922.99
231.312	34253.72
231.543	34578.63
231.774	34904.96
232.005	35236.27
232.236	35557.41
232.466	35870.56
232.697	36190.88
232.928	36497.08
233.159	36789.21
233.389	37081.23
233.62	37361.07
233.851	37639.5
234.082	37914.32
234.312	38176.63
234.543	38413.61
234.774	38654.5
235.004	38883.21
235.235	39115.92
235.466	39346.83
235.696	39573.36
235.927	39782.65
236.157	39995.96
236.388	40201.59
236.618	40397.94
236.849	40595.59
237.08	40792.48
237.31	40987.83
237.541	41173.98
237.771	41348.39
238.002	41524.1
238.232	41696.65
238.463	41876.25
238.693	42040.85
238.923	42204.58
239.154	42374.63
239.384	42509.96
239.615	42650.81
239.845	42782.83
240.075	42925.52
240.306	43069.54
240.536	43195.88
240.766	43320.19
240.997	43434.85
241.227	43551.52
241.457	43660.98
241.687	43760.36
241.918	43883.14
242.148	43997.36
242.378	44110.01
242.608	44218.48
242.839	44313.94
243.069	44418.14
243.299	44526.9
243.529	44620.25
243.759	44718.94
243.989	44823.85
244.22	44935.43
244.45	45041.63
244.68	45147.34
244.91	45253.87
245.14	45347.19
245.37	45448.36
245.6	45550.39
245.83	45637.87
246.06	45745.01
246.29	45844.52
246.52	45937.78
246.75	46025.81
246.98	46115.83
247.21	46200.63
247.44	46281.96
247.67	46373.74
247.9	46459.94
248.13	46552.27
248.359	46638.36
248.589	46728.9
248.819	46817.79
249.049	46903.92
249.279	46988.38
249.509	47066.18
249.738	47148.59
249.968	47216.34
250.198	47282.99
250.428	47351.47
250.657	47422.48
250.887	47501.05
251.117	47565.18
251.347	47634.54
251.576	47705.32
251.806	47765.1
252.036	47823.96
252.265	47877.94
252.495	47941.32
252.725	48010.18
252.954	48064.74
253.184	48118.52
253.413	48171.12
253.643	48225.56
253.873	48273.65
254.102	48312.61
254.332	48371.25
254.561	48414.1
254.791	48458.68
255.02	48511.5
255.25	48554.38
255.479	48612.36
255.708	48654.58
255.938	48690.81
256.167	48725.54
256.397	48742.7
256.626	48769.96
256.856	48777.65
257.085	48801.23
257.314	48822.65
257.544	48832.03
257.773	48830.28
258.002	48830.96
258.232	48842.01
258.461	48864.85
258.69	48891.7
258.919	48919.96
259.149	48943.14
259.378	48966.19
259.607	48987.08
259.836	49020.87
260.065	49052.36
260.295	49087.07
260.524	49120.78
260.753	49142.7
260.982	49160.65
261.211	49172.96
261.44	49198.19
261.669	49220.61
261.899	49248.9
262.128	49280.87
262.357	49297.88
262.586	49327.07
262.815	49354.67
263.044	49364.48
263.273	49382.65
263.502	49398.98
263.731	49407.76
263.96	49407.94
264.189	49420.56
264.418	49423.83
264.646	49420.38
264.875	49425.92
265.104	49432.72
265.333	49443.01
265.562	49465.85
265.791	49484.03
266.02	49505.43
266.249	49534.65
266.477	49564.48
266.706	49591.43
266.935	49622.96
267.164	49677.76
267.393	49728.65
267.621	49766.79
267.85	49817.58
268.079	49856.23
268.307	49892.81
268.536	49935.19
268.765	49985.58
268.993	50040.45
269.222	50090.3
269.451	50154.78
269.679	50199.41
269.908	50245.61
270.137	50311.39
270.365	50366.41
270.594	50428.5
270.822	50499.08
271.051	50581.61
271.279	50650.5
271.508	50736.25
271.736	50826.67
271.965	50911.61
272.193	51007.63
272.422	51111.36
272.65	51187.39
272.879	51294.32
273.107	51393.14
273.336	51504.01
273.564	51601.32
273.792	51704.14
274.021	51795.41
274.249	51885.34
274.477	51987.74
274.706	52085.47
274.934	52179.88
275.162	52299.27
275.391	52392.34
275.619	52508.3
275.847	52617.43
276.075	52731.74
276.304	52865.76
276.532	53001.19
276.76	53138.65
276.988	53274.79
277.216	53404.5
277.445	53534.99
277.673	53654.74
277.901	53784.16
278.129	53912.52
278.357	54043.96
278.585	54189.59
278.813	54310.23
279.041	54440.14
279.269	54572.79
279.497	54694.08
279.725	54830.07
279.954	54978.23
280.182	55127.98
280.41	55277.92
280.637	55429.03
280.865	55548.92
281.093	55675.23
281.321	55810.16
281.549	55949.01
281.777	56076.92
282.005	56219.81
282.233	56350.7
282.461	56468.32
282.689	56597.12
282.916	56711.78
283.144	56830.52
283.372	56972.65
283.6	57098.03
283.828	57223.47
284.055	57335.18
284.283	57448.63
284.511	57562.47
284.739	57671.47
284.966	57781.79
285.194	57882.96
285.422	58005.59
285.649	58116.5
285.877	58227.03
286.105	58338.43
286.332	58464.19
286.56	58577.96
286.788	58686.19
287.015	58793.23
287.243	58906.28
287.47	59024.03
287.698	59152.45
287.925	59252.52
288.153	59372.32
288.381	59488.56
288.608	59606.94
288.836	59699.48
289.063	59806.36
289.29	59930.3
289.518	60037.9
289.745	60153.45
289.973	60265.65
290.2	60362.96
290.428	60472.72
290.655	60570.25
290.882	60678.34
291.11	60764.81
291.337	60861.19
291.564	60949.34
291.792	61026.79
292.019	61101.05
292.246	61160.56
292.473	61208.27
292.701	61254.88
292.928	61292.54
293.155	61318.52
293.382	61327.38
293.61	61339.43
293.837	61343.78
294.064	61348.27
294.291	61348.27
294.518	61348.27
294.745	61348.27
294.972	61348.27
295.2	61348.27
295.427	61348.27
295.654	61348.27
295.881	61348.27
296.108	61348.27
296.335	61348.27
296.562	61348.27
296.789	61348.27
297.016	61348.27
297.243	61348.27
297.47	61348.27
297.697	61348.27
297.924	61348.27
298.151	61348.27
298.378	61348.27
298.604	61348.27
298.831	61348.27
299.058	61348.27
299.285	61348.27
299.512	61348.27
299.739	61348.27
299.966	61348.27
300.192	61348.27
300.419	61348.27
300.646	61348.27
300.873	61348.27
301.099	61348.27
301.326	61348.27
301.553	61348.27
301.78	61348.27
302.006	61348.27
302.233	61348.27
302.46	61348.27
302.686	61348.27
302.913	61348.27
303.14	61348.27
303.366	61348.27
303.593	61348.27
303.819	61348.27
304.046	61348.27
304.272	61348.27
304.499	61348.27
304.725	61348.27
304.952	61348.27
305.179	61348.27
305.405	61348.27
305.631	61348.27
305.858	61348.27
306.084	61348.27
306.311	61348.27
306.537	61348.27
306.764	61348.27
306.99	61348.27
307.216	61348.27
307.443	61348.27
307.669	61347.12
307.895	61347.12
308.122	61338.98
308.348	61326.78
308.574	61310.68
308.801	61283.81
309.027	61245.59
309.253	61216.34
309.479	61174.98
309.706	61121.23
309.932	61060.41
310.158	61006.94
310.384	60931.88
310.61	60867.47
310.837	60783.96
311.063	60703.03
311.289	60627.21
311.515	60558.03
311.741	60458.41
311.967	60364.54
312.193	60294.58
312.419	60213.12
312.645	60118.5
312.871	60024.21
313.097	59935.03
313.323	59850.03
313.549	59760.56
313.775	59676.58
314.001	59578.08
314.227	59498.34
314.453	59419.41
314.679	59315.1
314.905	59226.92
315.131	59127.92
315.357	59038.21
315.583	58932.9
315.809	58847.72
316.034	58758.63
316.26	58656.98
316.486	58570.16
316.712	58463.67
316.938	58365.05
317.163	58256.19
317.389	58149.23
317.615	58053.38
317.841	57962.25
318.066	57869.96
318.292	57771.94
318.518	57665.78
318.743	57574.5
318.969	57472.9
319.195	57386.7
319.42	57287.01
319.646	57204.94
319.872	57120.74
320.097	57026.47
320.323	56927.61
320.548	56837.74
320.774	56740.27
320.999	56650.7
321.225	56544.63
321.45	56445.08
321.676	56353.12
321.901	56266.38
322.127	56173.9
322.352	56089.67
322.578	56003.18
322.803	55922.14
323.029	55830.3
323.254	55753.94
323.479	55682.1
323.705	55601.81
323.93	55531.65
324.155	55459.61
324.381	55385.07
324.606	55318.58
324.831	55228.39
325.057	55141.81
325.282	55052.19
325.507	54972.36
325.732	54879.27
325.958	54785.39
326.183	54702.63
326.408	54601.92
326.633	54497.63
326.858	54404.94
327.084	54306.01
327.309	54223.45
327.534	54148.28
327.759	54069.19
327.984	53992.39
328.209	53910.79
328.434	53840.68
328.659	53782.52
328.884	53730.34
329.109	53668.25
329.334	53600.36
329.559	53530.68
329.784	53460.43
330.009	53387.14
330.234	53305.83
330.459	53234.99
330.684	53152.68
330.909	53057.34
331.134	52953.98
331.359	52858.94
331.584	52765.87
331.809	52675.87
332.034	52582.25
332.259	52484.1
332.483	52389.41
332.708	52301.98
332.933	52203.56
333.158	52128.07
333.383	52053.83
333.607	51974.56
333.832	51889.21
334.057	51806.01
334.282	51732.52
334.506	51660.03
334.731	51582.99
334.956	51515.16
335.18	51449.7
335.405	51369.47
335.63	51288.92
335.854	51207.23
336.079	51117.99
336.303	51029.23
336.528	50943.96
336.753	50844.81
336.977	50746.18
337.202	50654.47
337.426	50551.88
337.651	50457.18
337.875	50363.1
338.1	50266.07
338.324	50167.81
338.549	50090.12
338.773	50007.14
338.997	49925.47
339.222	49848.43
339.446	49778.9
339.671	49702.76
339.895	49638.21
340.119	49571.76
340.344	49486.76
340.568	49410.1
340.792	49328.7
341.017	49237.28
341.241	49150.65
341.465	49061.9
341.689	48964.38
341.914	48863.52
342.138	48765.47
342.362	48657.99
342.586	48544.14
342.811	48448.65
343.035	48335.32
343.259	48231.72
343.483	48131.56
343.707	48023.16
343.931	47930.98
344.155	47834.12
344.38	47741.99
344.604	47658.07
344.828	47563.58
345.052	47468.54
345.276	47386.23
345.5	47302.87
345.724	47214.92
345.948	47141.38
346.172	47072.99
346.396	46988.48
346.62	46914.05
346.844	46827.83
347.068	46735.32
347.292	46628.9
347.515	46522.54
347.739	46409.61
347.963	46303.96
348.187	46192.19
348.411	46059.52
348.635	45931.5
348.859	45796.01
349.082	45667.83
349.306	45528.98
349.53	45394.16
349.754	45281.81
349.977	45163.3
350.201	45046.32
350.425	44934.81
350.649	44826.85
350.872	44730.68
351.096	44623.85
351.32	44519.19
351.543	44402.07
351.767	44306.99
351.99	44199.18
352.214	44080.63
352.438	43966.85
352.661	43857.85
352.885	43745.16
353.108	43633.7
353.332	43513.7
353.555	43395.98
353.779	43280.08
354.002	43167.36
354.226	43048.36
354.449	42934.38
354.673	42831.21
354.896	42728.39
355.12	42614.07
355.343	42505.56
355.566	42398.52
355.79	42270.58
356.013	42159.65
356.237	42055.68
356.46	41937.81
356.683	41817.25
356.907	41699.32
357.13	41580.07
357.353	41457.72
357.576	41354.74
357.8	41245.9
358.023	41123.68
358.246	41019.85
358.469	40901.23
358.693	40777.99
358.916	40669.48
359.139	40565.54
359.362	40458.56
359.585	40345.96
359.808	40237.41
360.031	40125.63
360.255	40008.61
360.478	39897.39
360.701	39805.45
360.924	39719.34
361.147	39630.7
361.37	39539.27
361.593	39440.56
361.816	39355.99
362.039	39262.78
362.262	39174.45
362.485	39073.61
362.708	38980.99
362.931	38896.32
363.154	38790.28
363.377	38685.45
363.599	38585.07
363.822	38487.81
364.045	38400.1
364.268	38305.52
364.491	38230.48
364.714	38159.79
364.936	38104.3
365.159	38056.92
365.382	38028.94
365.605	38008.7
365.828	37990.18
366.05	37980.99
366.273	37966.41
366.496	37963.23
366.718	37936.3
366.941	37907.9
367.164	37859.58
367.386	37799.54
367.609	37725.52
367.832	37639.34
368.054	37547.38
368.277	37443.7
368.5	37324.54
368.722	37176.48
368.945	37012.72
369.167	36861.76
369.39	36708.14
369.612	36572.36
369.835	36438.45
370.057	36298.98
370.28	36167.87
370.502	36055.68
370.725	35954.79
370.947	35851.16
371.169	35775.3
371.392	35703.07
371.614	35635.56
371.837	35564.98
372.059	35500.67
372.281	35431.19
372.504	35380.19
372.726	35312.14
372.948	35248.48
373.171	35199.25
373.393	35166.07
373.615	35153.48
373.837	35174.36
374.06	35198.47
374.282	35243.52
374.504	35284.83
374.726	35311.47
374.948	35324.39
375.17	35333.56
375.393	35332.78
375.615	35321.08
375.837	35323.27
376.059	35326.59
376.281	35319.27
376.503	35319.81
376.725	35332.39
376.947	35352.81
377.169	35405.72
377.391	35481.23
377.613	35582.68
377.835	35718.87
378.057	35871.1
378.279	36011.9
378.501	36121.38
378.723	36162.9
378.945	36162.56
379.167	36126.41
379.389	36104.47
379.611	36071.79
379.833	36014.78
380.054	35924.92
380.276	35770.61
380.498	35585.68
380.72	35413.87
380.942	35285.54
381.163	35260.08
381.385	35282.58
381.607	35334.1
381.829	35347.79
382.05	35327.94
382.272	35292.88
382.494	35272.98
382.716	35278.85
382.937	35299.32
383.159	35304.54
383.381	35298.28
383.602	35230.38
383.824	35157.21
384.045	35053.81
384.267	34963.87
384.488	34902.01
384.71	34874.01
384.932	34855.96
385.153	34844.25
385.375	34840.59
385.596	34856.67
385.818	34889.9
386.039	34959.96
386.261	35054.25
386.482	35189.28
386.703	35327.3
386.925	35475.07
387.146	35630.99
387.368	35796.16
387.589	35951.08
387.81	36060.78
388.032	36087.27
388.253	36022.65
388.474	35894.23
388.696	35727.68
388.917	35542.63
389.138	35359.52
389.359	35200.58
389.581	35044.43
389.802	34874.9
390.023	34726.28
390.244	34616.61
390.465	34589.28
390.687	34653.18
390.908	34808.3
391.129	35032.94
391.35	35307.83
391.571	35636.52
391.792	35978.48
392.013	36285.32
392.234	36535.28
392.455	36701.1
392.677	36808.08
392.898	36848.68
393.119	36892.98
393.34	36884.47
393.561	36839.99
393.782	36724.61
394.003	36527.03
394.223	36258.27
394.444	35983.14
394.665	35746.54
394.886	35588.9
395.107	35501.18
395.328	35480.23
395.549	35458.79
395.77	35451.52
395.99	35439.56
396.211	35484.3
396.432	35599.25
396.653	35790.47
396.874	36050.59
397.094	36367.94
397.315	36720.45
397.536	37070.72
397.757	37348.9
397.977	37520.7
398.198	37618.25
398.419	37654.74
398.639	37623.03
398.86	37499.96
399.081	37282.21
399.301	37000.52
399.522	36684.16
399.742	36328.03
399.963	35978.12
400.184	35673.9
400.404	35406.65
400.625	35168.94
400.845	34956.74
401.066	34770.7
401.286	34628.21
401.507	34534.61
401.727	34468.28
401.948	34376.7
402.168	34286.47
402.388	34193.05
402.609	34103.87
402.829	34069.16
403.05	34081.36
403.27	34132.83
403.49	34206.87
403.711	34318.05
403.931	34458.85
404.151	34624.65
404.372	34825.68
404.592	35017.47
404.812	35146.28
405.032	35203.58
405.253	35160.05
405.473	35060.9
405.693	34886.81
405.913	34665.65
406.133	34375.76
406.353	34051.65
406.574	33680.39
406.794	33300.79
407.014	32960.43
407.234	32711.99
407.454	32572.94
407.674	32532.58
407.894	32508.96
408.114	32525.48
408.334	32545.5
408.554	32619.36
408.774	32717.7
408.994	32815.23
409.214	32868.68
409.434	32840.25
409.654	32727.88
409.874	32585.59
410.094	32435.34
410.314	32319.18
410.534	32210.47
410.754	32138.18
410.974	32074.14
411.193	32045.21
411.413	32085.54
411.633	32198.43
411.853	32364.25
412.073	32561.92
412.292	32750.65
412.512	32898.72
412.732	33004.99
412.952	33063.1
413.171	33065.87
413.391	33024.12
413.611	32923.18
413.831	32774.23
414.05	32597.25
414.27	32396.43
414.489	32192.87
414.709	31973.79
414.929	31788.92
415.148	31640.63
415.368	31539.68
415.587	31475.38
415.807	31406.68
416.026	31323.12
416.246	31243.47
416.465	31146.98
416.685	31071.5
416.904	31002.28
417.124	30941.63
417.343	30874.67
417.563	30805.94
417.782	30755.05
418.002	30715.45
418.221	30709.36
418.44	30734.92
418.66	30757.94
418.879	30796.48
419.098	30855.54
419.318	30982.08
419.537	31171.03
419.756	31415.47
419.976	31716.41
420.195	32074.96
420.414	32504.48
420.633	32966.63
420.853	33419.87
421.072	33818.27
421.291	34150.45
421.51	34408.07
421.729	34582.7
421.948	34721.45
422.168	34830.81
422.387	34878.3
422.606	34814.63
422.825	34598.7
423.044	34264.41
423.263	33876.96
423.482	33530.07
423.701	33257.25
423.92	33051.81
424.139	32855.59
424.358	32610.56
424.577	32274.01
424.796	31869.07
425.015	31461.7
425.234	31113.52
425.453	30853.94
425.672	30671.18
425.891	30565.1
426.11	30553.28
426.328	30631.81
426.547	30735.99
426.766	30800.27
426.985	30824.98
427.204	30824.19
427.422	30871.34
427.641	30961.92
427.86	31066.96
428.079	31203.36
428.297	31374.83
428.516	31570.63
428.735	31755.79
428.954	31968.79
429.172	32234.05
429.391	32564.79
429.61	32953.27
429.828	33280.65
430.047	33484.52
430.265	33566.65
430.484	33478.03
430.703	33184.47
430.921	32697.05
431.14	32076.1
431.358	31410.54
431.577	30783.98
431.795	30198.63
432.014	29681.36
432.232	29350.74
432.451	29316.43
432.669	29602.38
432.887	30038.61
433.106	30449.1
433.324	30698.01
433.543	30787.18
