Data from water4_MAYP1115451__0__10-15-28-982.txt Node

Date: Thu May 23 10:15:28 MDT 2024
User: Modes Lab
Spectrometer: MAYP111545
Trigger mode: 0
Integration Time (sec): 1.000000E-1
Scans to average: 5
Electric dark correction enabled: true
Nonlinearity correction enabled: false
Boxcar width: 0
XAxis mode: Wavelengths
Number of Pixels in Spectrum: 2068
>>>>>Begin Spectral Data<<<<<
165.214	996.13
165.449	-182.67
165.683	37.93
165.918	-12.87
166.152	221.13
166.387	431.33
166.621	1000.13
166.856	1576.33
167.09	1666.53
167.325	1630.13
167.559	1663.13
167.794	1650.33
168.028	1632.73
168.263	1665.13
168.497	1671.13
168.732	1615.13
168.966	1661.13
169.2	1635.93
169.435	1642.73
169.669	1669.73
169.903	1735.13
170.138	1671.73
170.372	1658.93
170.606	1692.73
170.841	1672.93
171.075	1675.13
171.309	1685.73
171.544	1657.33
171.778	1644.93
172.012	1657.73
172.246	1684.33
172.48	1678.53
172.715	1668.73
172.949	1674.33
173.183	1674.33
173.417	1641.93
173.651	1693.93
173.885	1663.73
174.119	1677.73
174.354	1667.13
174.588	1659.13
174.822	1694.53
175.056	1696.53
175.29	1692.33
175.524	1671.73
175.758	1692.53
175.992	1677.93
176.226	1685.13
176.46	1689.13
176.694	1636.53
176.928	1686.53
177.162	1704.33
177.396	1639.33
177.63	1663.73
177.864	1677.33
178.097	1697.73
178.331	1693.53
178.565	1672.73
178.799	1713.33
179.033	1679.73
179.267	1692.93
179.5	1663.33
179.734	1716.73
179.968	1694.73
180.202	1688.13
180.436	1645.53
180.669	1647.13
180.903	1689.93
181.137	1715.13
181.371	1725.73
181.604	1686.73
181.838	1702.13
182.072	1682.33
182.305	1698.33
182.539	1691.53
182.772	1669.93
183.006	1684.73
183.24	1727.33
183.473	1733.53
183.707	1669.73
183.94	1678.93
184.174	1691.33
184.408	1678.93
184.641	1807.33
184.875	1698.13
185.108	1671.93
185.342	1728.13
185.575	1686.53
185.808	1687.93
186.042	1672.53
186.275	1708.93
186.509	1706.93
186.742	1728.93
186.976	1697.93
187.209	1729.73
187.442	1719.33
187.676	1680.73
187.909	1674.53
188.142	1728.93
188.376	1683.73
188.609	1718.73
188.842	1667.73
189.076	1694.53
189.309	1666.33
189.542	1716.13
189.775	1727.73
190.009	1683.73
190.242	1710.33
190.475	1706.13
190.708	1730.53
190.941	1720.33
191.174	1723.93
191.408	1696.33
191.641	1715.53
191.874	1736.13
192.107	1732.93
192.34	1738.73
192.573	1697.73
192.806	1724.33
193.039	1713.33
193.272	1769.33
193.505	1747.53
193.738	1748.53
193.971	1750.13
194.204	1717.53
194.437	1749.33
194.67	1727.13
194.903	1760.93
195.136	1753.13
195.369	1761.73
195.602	1740.53
195.835	1741.13
196.068	1716.33
196.301	1741.13
196.533	1756.73
196.766	1735.13
196.999	1741.73
197.232	1767.13
197.465	1741.13
197.698	1736.93
197.93	1738.73
198.163	1813.73
198.396	1755.33
198.629	1747.13
198.861	1722.53
199.094	1776.33
199.327	1761.53
199.559	1747.93
199.792	1760.33
200.025	1779.33
200.257	1762.13
200.49	1754.53
200.723	1748.73
200.955	1788.13
201.188	1745.73
201.42	1771.33
201.653	1778.73
201.886	1777.93
202.118	1787.53
202.351	1761.73
202.583	1784.53
202.816	1783.53
203.048	1796.53
203.281	1793.53
203.513	1797.53
203.745	1837.93
203.978	1780.93
204.21	1782.33
204.443	1778.73
204.675	1784.53
204.907	1799.13
205.14	1774.73
205.372	1769.13
205.605	1781.33
205.837	1781.53
206.069	1817.73
206.302	1814.53
206.534	1802.13
206.766	1832.53
206.998	1829.33
207.231	1786.73
207.463	1784.73
207.695	1776.73
207.927	1813.33
208.159	1809.53
208.392	1818.73
208.624	1806.53
208.856	1850.13
209.088	1811.33
209.32	1793.93
209.552	1777.93
209.784	1845.33
210.017	1788.33
210.249	1806.33
210.481	1850.13
210.713	1817.13
210.945	1835.33
211.177	1829.73
211.409	1855.73
211.641	1830.93
211.873	1859.73
212.105	1839.13
212.337	1825.73
212.569	1846.93
212.801	1855.93
213.033	1823.33
213.264	1863.33
213.496	1839.93
213.728	1847.53
213.96	1864.73
214.192	1883.53
214.424	1846.93
214.656	1879.93
214.887	1858.93
215.119	1871.53
215.351	1844.93
215.583	1863.93
215.815	1855.13
216.046	1864.93
216.278	1899.93
216.51	1869.53
216.741	1850.53
216.973	1870.93
217.205	1831.33
217.436	1872.13
217.668	1857.73
217.9	1860.33
218.131	1870.33
218.363	1872.33
218.595	1870.33
218.826	2017.13
219.058	1891.73
219.289	1840.33
219.521	1883.53
219.752	1915.73
219.984	1899.93
220.215	1905.53
220.447	1869.93
220.678	1875.33
220.91	1910.33
221.141	1876.13
221.373	1885.53
221.604	1854.93
221.836	1876.33
222.067	1873.93
222.298	1887.33
222.53	1905.33
222.761	1873.13
222.993	1927.93
223.224	1893.13
223.455	1890.93
223.686	1881.53
223.918	1906.13
224.149	1912.13
224.38	1932.93
224.612	1911.33
224.843	1872.33
225.074	1893.13
225.305	1926.13
225.536	1859.13
225.768	1881.33
225.999	1893.33
226.23	1918.73
226.461	1905.13
226.692	1902.53
226.923	1929.93
227.155	1905.93
227.386	1904.33
227.617	1893.53
227.848	1897.13
228.079	1916.73
228.31	2022.33
228.541	1954.13
228.772	1871.33
229.003	1918.93
229.234	1995.73
229.465	1922.73
229.696	1931.13
229.927	1932.93
230.158	1916.93
230.389	1918.33
230.62	1895.33
230.85	1884.93
231.081	1923.13
231.312	1937.73
231.543	1869.93
231.774	1932.13
232.005	1933.33
232.236	1883.33
232.466	1913.13
232.697	1910.33
232.928	1894.73
233.159	1926.73
233.389	1920.13
233.62	1925.73
233.851	1938.53
234.082	1912.53
234.312	1945.13
234.543	1909.93
234.774	1903.13
235.004	1875.93
235.235	1862.53
235.466	1903.93
235.696	1887.53
235.927	1903.53
236.157	1910.93
236.388	1948.13
236.618	1902.73
236.849	1935.93
237.08	1940.13
237.31	1909.53
237.541	1928.33
237.771	1894.13
238.002	1896.53
238.232	1942.93
238.463	1950.53
238.693	1897.33
238.923	1884.33
239.154	1933.93
239.384	1884.73
239.615	1909.73
239.845	1925.93
240.075	1906.53
240.306	1912.53
240.536	1922.93
240.766	1896.33
240.997	1871.53
241.227	1920.93
241.457	1902.13
241.687	1900.53
241.918	1918.33
242.148	1909.53
242.378	1905.53
242.608	1900.73
242.839	1912.13
243.069	1942.93
243.299	1901.53
243.529	1870.93
243.759	1920.93
243.989	1914.33
244.22	1888.33
244.45	1889.73
244.68	2215.93
244.91	1919.13
245.14	1897.73
245.37	1917.13
245.6	1909.93
245.83	1918.13
246.06	1895.53
246.29	1897.13
246.52	1916.13
246.75	1912.33
246.98	1940.73
247.21	1908.13
247.44	1943.73
247.67	1922.93
247.9	1910.33
248.13	1939.73
248.359	1927.33
248.589	1921.13
248.819	1906.13
249.049	1912.93
249.279	1924.33
249.509	1925.33
249.738	1906.93
249.968	1944.33
250.198	1913.13
250.428	1941.53
250.657	1913.13
250.887	1916.93
251.117	1917.93
251.347	1906.33
251.576	1929.33
251.806	1875.13
252.036	1921.93
252.265	1939.73
252.495	1914.33
252.725	1901.73
252.954	1947.53
253.184	1903.73
253.413	1922.93
253.643	1917.93
253.873	1896.73
254.102	1949.73
254.332	1907.93
254.561	1921.53
254.791	1904.33
255.02	1907.33
255.25	1916.13
255.479	1897.13
255.708	1915.93
255.938	1887.33
256.167	1904.93
256.397	1911.33
256.626	1877.33
256.856	1911.93
257.085	1875.73
257.314	1882.53
257.544	1866.73
257.773	1863.93
258.002	1898.53
258.232	1908.93
258.461	1868.33
258.69	1889.33
258.919	1914.13
259.149	1899.73
259.378	1878.73
259.607	1900.93
259.836	1908.13
260.065	1885.93
260.295	1896.13
260.524	1916.73
260.753	1880.73
260.982	1871.13
261.211	1915.53
261.44	1930.33
261.669	1918.33
261.899	1865.13
262.128	1862.33
262.357	1912.93
262.586	1845.93
262.815	1891.13
263.044	1884.73
263.273	1880.53
263.502	1872.13
263.731	1879.73
263.96	1866.73
264.189	1878.53
264.418	2206.33
264.646	1923.93
264.875	1886.53
265.104	1847.13
265.333	1863.93
265.562	1868.93
265.791	1842.73
266.02	1850.93
266.249	1874.93
266.477	1913.33
266.706	1896.13
266.935	1844.73
267.164	1864.53
267.393	1832.33
267.621	1890.93
267.85	1838.93
268.079	1823.73
268.307	1911.53
268.536	1851.73
268.765	1902.13
268.993	1865.33
269.222	1922.73
269.451	1861.93
269.679	1854.33
269.908	1891.93
270.137	1904.73
270.365	1882.53
270.594	1896.73
270.822	1872.33
271.051	1906.53
271.279	1836.93
271.508	1864.53
271.736	1865.13
271.965	1877.33
272.193	1874.33
272.422	1865.53
272.65	1868.73
272.879	1902.33
273.107	1873.33
273.336	1873.93
273.564	1925.13
273.792	1881.33
274.021	1844.33
274.249	1870.73
274.477	1865.13
274.706	1888.73
274.934	1855.53
275.162	1880.53
275.391	1864.13
275.619	1884.93
275.847	1853.53
276.075	1865.13
276.304	1871.93
276.532	1899.13
276.76	1866.13
276.988	1876.13
277.216	1855.73
277.445	1860.13
277.673	1889.13
277.901	1848.13
278.129	1835.73
278.357	1885.13
278.585	1847.53
278.813	1833.93
279.041	1854.53
279.269	1901.33
279.497	1880.53
279.725	1858.93
279.954	1887.33
280.182	1858.13
280.41	1833.73
280.637	1871.73
280.865	1843.53
281.093	1867.93
281.321	1852.13
281.549	1869.73
281.777	1841.13
282.005	1883.53
282.233	1848.53
282.461	1849.33
282.689	1826.53
282.916	1840.53
283.144	1842.33
283.372	1872.33
283.6	1848.13
283.828	1903.13
284.055	1858.93
284.283	1868.93
284.511	1863.33
284.739	1861.33
284.966	1815.73
285.194	1818.53
285.422	1875.33
285.649	1884.53
285.877	1872.33
286.105	1859.73
286.332	1841.93
286.56	1821.13
286.788	1862.93
287.015	1824.13
287.243	1844.53
287.47	1886.73
287.698	1914.73
287.925	1852.53
288.153	1878.33
288.381	1848.13
288.608	1862.13
288.836	1814.73
289.063	1871.53
289.29	1849.33
289.518	1843.13
289.745	1828.13
289.973	1829.53
290.2	1843.93
290.428	1861.33
290.655	1812.93
290.882	1849.13
291.11	1868.93
291.337	1852.93
291.564	1816.33
291.792	1865.73
292.019	1862.73
292.246	1851.73
292.473	1844.93
292.701	1840.93
292.928	1832.33
293.155	1843.13
293.382	1836.13
293.61	1801.73
293.837	1838.73
294.064	1813.93
294.291	1864.93
294.518	1854.93
294.745	1833.33
294.972	1827.13
295.2	1818.93
295.427	1804.93
295.654	1812.33
295.881	1838.53
296.108	1814.33
296.335	1810.13
296.562	1838.33
296.789	1833.13
297.016	1809.33
297.243	1810.73
297.47	1816.93
297.697	1840.33
297.924	1834.93
298.151	1850.73
298.378	1800.53
298.604	1842.73
298.831	1816.13
299.058	1802.13
299.285	1794.73
299.512	1840.13
299.739	1799.53
299.966	1814.93
300.192	1800.33
300.419	1820.53
300.646	1810.33
300.873	1828.73
301.099	1834.93
301.326	1797.13
301.553	1802.73
301.78	1825.33
302.006	1788.93
302.233	1819.73
302.46	1786.53
302.686	1786.53
302.913	1951.93
303.14	1803.73
303.366	1825.33
303.593	1792.93
303.819	1793.73
304.046	1792.13
304.272	1822.53
304.499	1825.13
304.725	1815.53
304.952	1792.73
305.179	1790.33
305.405	1823.93
305.631	1823.93
305.858	1778.13
306.084	1798.33
306.311	1783.33
306.537	1835.33
306.764	1817.93
306.99	1778.33
307.216	1775.33
307.443	1795.93
307.669	1808.73
307.895	1778.53
308.122	1799.73
308.348	1800.33
308.574	1786.73
308.801	1802.53
309.027	1786.13
309.253	1787.93
309.479	1803.33
309.706	1771.13
309.932	1830.93
310.158	1803.93
310.384	1779.73
310.61	1773.13
310.837	1813.93
311.063	1790.53
311.289	1760.73
311.515	1772.33
311.741	1814.73
311.967	1780.13
312.193	1797.33
312.419	1768.33
312.645	1777.53
312.871	1739.53
313.097	1838.13
313.323	1775.73
313.549	1781.53
313.775	1766.93
314.001	1767.73
314.227	1794.93
314.453	1827.13
314.679	1822.33
314.905	1782.73
315.131	1770.13
315.357	1777.93
315.583	1789.73
315.809	1812.13
316.034	1815.73
316.26	1777.33
316.486	1771.93
316.712	1814.33
316.938	1774.53
317.163	1805.53
317.389	1817.73
317.615	1802.93
317.841	1813.33
318.066	1767.13
318.292	1821.53
318.518	1792.13
318.743	1798.93
318.969	1808.33
319.195	1798.33
319.42	1805.33
319.646	1787.93
319.872	1814.13
320.097	1827.73
320.323	1860.73
320.548	1776.13
320.774	1884.53
320.999	1793.73
321.225	1851.73
321.45	1789.33
321.676	1916.93
321.901	1924.93
322.127	1831.33
322.352	1875.33
322.578	1837.93
322.803	1877.73
323.029	1874.53
323.254	1881.73
323.479	1878.93
323.705	1888.53
323.93	1907.53
324.155	1870.13
324.381	1897.53
324.606	1905.13
324.831	1926.53
325.057	1891.73
325.282	1940.13
325.507	1904.73
325.732	1942.53
325.958	1975.13
326.183	1916.53
326.408	1947.93
326.633	1962.73
326.858	1977.53
327.084	1988.73
327.309	1967.93
327.534	1968.53
327.759	2030.93
327.984	2009.93
328.209	2019.93
328.434	2000.13
328.659	2037.93
328.884	2035.13
329.109	2087.13
329.334	2038.33
329.559	2082.33
329.784	2092.13
330.009	2123.13
330.234	2084.13
330.459	2145.73
330.684	2124.53
330.909	2139.93
331.134	2138.93
331.359	2145.53
331.584	2135.33
331.809	2176.13
332.034	2215.33
332.259	2196.53
332.483	2183.33
332.708	2239.93
332.933	2216.53
333.158	2218.33
333.383	2249.93
333.607	2298.73
333.832	2292.13
334.057	2310.33
334.282	2296.53
334.506	2321.93
334.731	2398.13
334.956	2364.13
335.18	2363.53
335.405	2392.13
335.63	2408.53
335.854	2400.73
336.079	2469.93
336.303	2438.13
336.528	2435.13
336.753	2487.13
336.977	2541.53
337.202	2518.53
337.426	2525.73
337.651	2533.33
337.875	2556.53
338.1	2593.53
338.324	2597.93
338.549	2631.13
338.773	2603.93
338.997	2623.33
339.222	2679.13
339.446	2681.13
339.671	2706.33
339.895	2741.53
340.119	2714.13
340.344	2763.93
340.568	2776.93
340.792	2805.13
341.017	2808.93
341.241	2858.73
341.465	2892.93
341.689	2913.33
341.914	2897.33
342.138	2906.33
342.362	2970.93
342.586	2948.53
342.811	2991.93
343.035	3006.73
343.259	2996.53
343.483	3062.53
343.707	3058.93
343.931	3063.73
344.155	3154.93
344.38	3104.13
344.604	3133.73
344.828	3203.13
345.052	3295.53
345.276	3205.73
345.5	3258.93
345.724	3296.73
345.948	3318.33
346.172	3300.33
346.396	3305.53
346.62	3349.93
346.844	3401.73
347.068	3420.13
347.292	3459.73
347.515	3484.93
347.739	3589.93
347.963	3509.13
348.187	3550.53
348.411	3580.33
348.635	3600.13
348.859	3844.73
349.082	3622.33
349.306	3678.13
349.53	3662.53
349.754	3713.13
349.977	3767.53
350.201	3760.33
350.425	3737.93
350.649	3809.13
350.872	3823.33
351.096	3819.73
351.32	3870.33
351.543	3936.13
351.767	3938.53
351.99	4010.93
352.214	4003.93
352.438	4054.93
352.661	4040.93
352.885	4093.93
353.108	4105.33
353.332	4143.73
353.555	4190.93
353.779	4182.13
354.002	4225.93
354.226	4242.53
354.449	4275.33
354.673	4268.93
354.896	4342.53
355.12	4349.53
355.343	4371.33
355.566	4376.33
355.79	4431.13
356.013	4437.53
356.237	4478.13
356.46	4484.13
356.683	4551.93
356.907	4547.33
357.13	4650.93
357.353	4578.53
357.576	4666.93
357.8	4687.53
358.023	4684.53
358.246	4716.53
358.469	4763.53
358.693	4788.53
358.916	4788.93
359.139	4800.13
359.362	4895.93
359.585	4868.93
359.808	4934.73
360.031	4929.13
360.255	4961.53
360.478	5004.73
360.701	5030.13
360.924	5062.13
361.147	5074.53
361.37	5143.13
361.593	5159.93
361.816	5188.13
362.039	5194.13
362.262	5234.33
362.485	5264.53
362.708	5347.53
362.931	5343.53
363.154	5372.53
363.377	5381.73
363.599	5405.73
363.822	5387.13
364.045	5482.93
364.268	5486.13
364.491	5511.13
364.714	5528.13
364.936	5610.13
365.159	5641.13
365.382	5653.33
365.605	5697.13
365.828	5710.73
366.05	5784.73
366.273	5777.33
366.496	5777.93
366.718	5834.93
366.941	6324.73
367.164	5904.13
367.386	5974.73
367.609	5935.93
367.832	6043.33
368.054	6049.93
368.277	6085.53
368.5	6085.53
368.722	6124.53
368.945	6149.13
369.167	6199.93
369.39	6272.33
369.612	6250.93
369.835	6317.73
370.057	6331.33
370.28	6364.73
370.502	6373.93
370.725	6435.33
370.947	6469.13
371.169	6516.13
371.392	6577.33
371.614	6530.53
371.837	6571.33
372.059	6604.73
372.281	6619.53
372.504	6726.93
372.726	6707.53
372.948	6719.13
373.171	6786.93
373.393	6837.33
373.615	6900.93
373.837	6857.53
374.06	6917.73
374.282	6968.33
374.504	6986.53
374.726	6991.93
374.948	7112.33
375.17	7144.93
375.393	7177.93
375.615	7205.93
375.837	7199.13
376.059	7301.33
376.281	7303.33
376.503	7420.53
376.725	7349.93
376.947	7426.13
377.169	7467.53
377.391	7510.13
377.613	7483.33
377.835	7572.93
378.057	7633.33
378.279	7715.33
378.501	7680.53
378.723	7864.53
378.945	7809.13
379.167	7831.33
379.389	7872.13
379.611	7916.73
379.833	7956.53
380.054	8007.73
380.276	8047.73
380.498	8080.33
380.72	8113.53
380.942	8181.73
381.163	8216.13
381.385	8268.93
381.607	8346.53
381.829	8375.53
382.05	8420.73
382.272	8470.13
382.494	8493.13
382.716	8532.73
382.937	8645.53
383.159	8661.53
383.381	8687.93
383.602	8783.53
383.824	8792.33
384.045	8790.93
384.267	8916.93
384.488	8950.73
384.71	8970.33
384.932	8999.73
385.153	9044.73
385.375	9115.33
385.596	9232.73
385.818	9196.93
386.039	9282.73
386.261	9321.53
386.482	9381.53
386.703	9470.93
386.925	9466.73
387.146	9496.33
387.368	9587.73
387.589	9629.13
387.81	9693.33
388.032	9736.13
388.253	9870.13
388.474	9915.53
388.696	9936.73
388.917	10040.33
389.138	10077.13
389.359	10122.73
389.581	10129.33
389.802	10171.33
390.023	10233.33
390.244	10301.33
390.465	10405.93
390.687	10427.33
390.908	10496.73
391.129	10573.53
391.35	10587.53
391.571	10609.73
391.792	10680.93
392.013	10737.33
392.234	10871.13
392.455	10809.13
392.677	10873.93
392.898	10970.53
393.119	11007.93
393.34	11056.53
393.561	11106.33
393.782	11192.73
394.003	11264.93
394.223	11298.73
394.444	11320.33
394.665	11372.33
394.886	11497.13
395.107	11522.13
395.328	11604.13
395.549	11620.33
395.77	11733.13
395.99	11838.33
396.211	11833.33
396.432	11910.73
396.653	11951.13
396.874	12008.33
397.094	12067.13
397.315	12152.93
397.536	12198.73
397.757	12267.33
397.977	12324.73
398.198	12332.93
398.419	12426.93
398.639	12468.93
398.86	12579.93
399.081	12616.93
399.301	12623.33
399.522	12684.13
399.742	12830.93
399.963	12804.73
400.184	12933.73
400.404	12984.73
400.625	13001.33
400.845	13090.73
401.066	13172.33
401.286	13162.73
401.507	13244.73
401.727	13308.53
401.948	13392.73
402.168	13497.93
402.388	13552.13
402.609	13564.53
402.829	13650.73
403.05	13643.93
403.27	13788.93
403.49	13793.13
403.711	13873.13
403.931	13895.73
404.151	13995.53
404.372	13998.33
404.592	14060.13
404.812	14135.93
405.032	14335.13
405.253	14302.13
405.473	14365.93
405.693	14405.13
405.913	14506.93
406.133	14495.53
406.353	14519.53
406.574	14633.53
406.794	14867.53
407.014	14766.93
407.234	14830.33
407.454	15297.33
407.674	14888.13
407.894	14969.53
408.114	15061.13
408.334	15030.13
408.554	15148.13
408.774	15123.93
408.994	15208.93
409.214	15381.93
409.434	15375.73
409.654	15424.53
409.874	15520.33
410.094	15597.53
410.314	15602.13
410.534	15726.13
410.754	15804.73
410.974	15865.33
411.193	15876.33
411.413	15882.13
411.633	15934.53
411.853	16067.93
412.073	16072.53
412.292	16140.13
412.512	16165.13
412.732	16209.13
412.952	16247.33
413.171	16254.53
413.391	16367.13
413.611	16398.13
413.831	16485.93
414.05	16519.33
414.27	16661.53
414.489	16685.53
414.709	16721.53
414.929	16812.73
415.148	16863.13
415.368	17003.53
415.587	16967.93
415.807	17046.33
416.026	17070.53
416.246	17121.53
416.465	17153.73
416.685	17347.13
416.904	17293.93
417.124	17434.33
417.343	17428.73
417.563	17583.73
417.782	17550.33
418.002	17686.53
418.221	17680.73
418.44	17767.13
418.66	17800.53
418.879	17871.53
419.098	18017.93
419.318	17965.93
419.537	18005.13
419.756	18093.93
419.976	18237.53
420.195	18160.73
420.414	18277.53
420.633	18348.13
420.853	18437.93
421.072	18344.93
421.291	18453.33
421.51	18601.53
421.729	18516.33
421.948	18606.53
422.168	18790.53
422.387	18753.33
422.606	18851.13
422.825	18868.73
423.044	19018.33
423.263	18961.13
423.482	19037.73
423.701	19154.73
423.92	19155.53
424.139	19205.53
424.358	19294.13
424.577	19289.33
424.796	19350.73
425.015	19392.33
425.234	19460.33
425.453	19539.53
425.672	19600.13
425.891	19585.13
426.11	19687.53
426.328	19747.13
426.547	19826.33
426.766	19883.73
426.985	19957.53
427.204	19993.73
427.422	20096.93
427.641	20161.93
427.86	20200.93
428.079	20217.53
428.297	20268.13
428.516	20309.33
428.735	20315.73
428.954	20351.33
429.172	20448.33
429.391	20555.93
429.61	20524.73
429.828	20723.53
430.047	20792.93
430.265	20786.33
430.484	20840.93
430.703	21029.73
430.921	21007.53
431.14	21211.73
431.358	21112.33
431.577	21130.93
431.795	21230.93
432.014	21261.13
432.232	21287.33
432.451	21377.33
432.669	21386.33
432.887	21501.53
433.106	21542.93
433.324	21657.33
433.543	21705.33
433.761	21692.33
433.979	21787.33
434.198	21743.93
434.416	21906.73
434.634	21937.13
434.853	22020.33
435.071	22104.53
435.289	22129.53
435.507	22266.33
435.726	22268.93
435.944	22224.93
436.162	22415.33
436.38	22369.53
436.598	22443.93
436.817	22485.73
437.035	22577.73
437.253	22530.73
437.471	22561.73
437.689	22672.53
437.907	22669.73
438.125	22826.13
438.343	22887.93
438.561	22939.33
438.78	23116.93
438.998	23145.93
439.216	23132.53
439.434	23289.33
439.652	23332.53
439.869	23346.73
440.087	23396.93
440.305	23491.33
440.523	23518.93
440.741	23542.33
440.959	23607.73
