Data from run1_MAYP1115451__0__10-04-48-254.txt Node

Date: Tue May 21 10:04:48 MDT 2024
User: Modes Lab
Spectrometer: MAYP111545
Trigger mode: 0
Integration Time (sec): 9.000000E-3
Scans to average: 5
Electric dark correction enabled: true
Nonlinearity correction enabled: false
Boxcar width: 5
XAxis mode: Wavelengths
Number of Pixels in Spectrum: 2068
>>>>>Begin Spectral Data<<<<<
165.214	158
165.449	154.37
165.683	160.94
165.918	167.17
166.152	170.51
166.387	174.6
166.621	101.75
166.856	136.84
167.09	152.04
167.325	172.69
167.559	187.66
167.794	200.82
168.028	207.31
168.263	208.06
168.497	207.57
168.732	208.53
168.966	208.44
169.2	208.4
169.435	210.15
169.669	210.24
169.903	209.84
170.138	209.86
170.372	211.17
170.606	211.33
170.841	211.4
171.075	211.69
171.309	212.02
171.544	212.17
171.778	212.97
172.012	212.55
172.246	212.78
172.48	213.75
172.715	213.89
172.949	214.44
173.183	215.89
173.417	216.18
173.651	217.33
173.885	217.28
174.119	218
174.354	218.35
174.588	218.42
174.822	219.44
175.056	219.88
175.29	220.71
175.524	219.93
175.758	219.33
175.992	220.24
176.226	219.73
176.46	220.29
176.694	220.75
176.928	221.42
177.162	222.71
177.396	223.24
177.63	224.95
177.864	226.44
178.097	228.15
178.331	229.6
178.565	230.64
178.799	232.15
179.033	233.31
179.267	233.62
179.5	234.42
179.734	235.95
179.968	237.35
180.202	237.89
180.436	238.04
180.669	239.69
180.903	241.42
181.137	242.46
181.371	244.73
181.604	247.38
181.838	250.98
182.072	254.44
182.305	258.4
182.539	262.68
182.772	268.66
183.006	274.18
183.24	278.77
183.473	288.24
183.707	296.58
183.94	305.22
184.174	315.57
184.408	326.49
184.641	338.42
184.875	349.08
185.108	361.64
185.342	373.57
185.575	389.09
185.808	407.62
186.042	424.33
186.275	445.24
186.509	465.18
186.742	484.31
186.976	502.58
187.209	522.4
187.442	547.31
187.676	573.11
187.909	602.24
188.142	631.26
188.376	657.58
188.609	682.89
188.842	704.6
189.076	728.86
189.309	754.95
189.542	786.68
189.775	819.68
190.009	852.15
190.242	884.11
190.475	914.64
190.708	945.28
190.941	975.58
191.174	1006.53
191.408	1040.51
191.641	1078.35
191.874	1117.71
192.107	1156.17
192.34	1194.2
192.573	1230.48
192.806	1267.44
193.039	1305.75
193.272	1343.89
193.505	1383.2
193.738	1424.84
193.971	1466.51
194.204	1507.17
194.437	1549.55
194.67	1590.68
194.903	1628.68
195.136	1667.69
195.369	1709.37
195.602	1749.13
195.835	1791.62
196.068	1835.08
196.301	1877.82
196.533	1923.82
196.766	1965.98
196.999	2007.64
197.232	2048.93
197.465	2096
197.698	2142.55
197.93	2187.68
198.163	2233.77
198.396	2281.53
198.629	2331.93
198.861	2381.06
199.094	2429.91
199.327	2480.31
199.559	2528.8
199.792	2579.08
200.025	2629.2
200.257	2685.62
200.49	2742.64
200.723	2799.51
200.955	2857.64
201.188	2914.68
201.42	2974.68
201.653	3037.44
201.886	3102.06
202.118	3171.97
202.351	3240.11
202.583	3309.31
202.816	3377.86
203.048	3449.18
203.281	3522.28
203.513	3597.37
203.745	3674.73
203.978	3753.4
204.21	3833.69
204.443	3913.89
204.675	3994.48
204.907	4079.04
205.14	4166.89
205.372	4254.95
205.605	4343.62
205.837	4438.53
206.069	4532.33
206.302	4629.15
206.534	4730.64
206.766	4828.88
206.998	4932.49
207.231	5040.35
207.463	5151.68
207.695	5262.24
207.927	5373.98
208.159	5492.6
208.392	5607.17
208.624	5724.44
208.856	5843.4
209.088	5966.37
209.32	6093.98
209.552	6222.2
209.784	6350.55
210.017	6479.91
210.249	6613.15
210.481	6748.78
210.713	6882.15
210.945	7021.15
211.177	7166.33
211.409	7312.86
211.641	7457.58
211.873	7602.89
212.105	7754.73
212.337	7910.37
212.569	8069.02
212.801	8228.91
213.033	8394.49
213.264	8556.71
213.496	8729.49
213.728	8904.89
213.96	9078.48
214.192	9259.55
214.424	9440.08
214.656	9624.18
214.887	9811.82
215.119	10002.35
215.351	10191.6
215.583	10380.53
215.815	10585.4
216.046	10779.82
216.278	10973.24
216.51	11173.06
216.741	11369.71
216.973	11581.6
217.205	11789.8
217.436	11992.66
217.668	12200.17
217.9	12408.8
218.131	12623.4
218.363	12831.6
218.595	13047.06
218.826	13268.84
219.058	13489.84
219.289	13713.62
219.521	13934.73
219.752	14155.38
219.984	14380.08
220.215	14610.77
220.447	14848.18
220.678	15077.78
220.91	15315.26
221.141	15557.2
221.373	15786.55
221.604	16029.71
221.836	16275.64
222.067	16519.42
222.298	16776.13
222.53	17030.53
222.761	17279.42
222.993	17533.18
223.224	17799.18
223.455	18058.2
223.686	18308.24
223.918	18574.04
224.149	18837.08
224.38	19104.49
224.612	19371.55
224.843	19633.2
225.074	19899.97
225.305	20166.78
225.536	20432.98
225.768	20701.13
225.999	20964.69
226.23	21239.64
226.461	21507.02
226.692	21776.91
226.923	22040.26
227.155	22298.57
227.386	22568.49
227.617	22832.31
227.848	23101.88
228.079	23379.78
228.31	23646.35
228.541	23932.06
228.772	24207.66
229.003	24479.88
229.234	24752.8
229.465	25024.26
229.696	25299.22
229.927	25565.17
230.158	25846.73
230.389	26120.4
230.62	26390.35
230.85	26662.78
231.081	26921.28
231.312	27195.13
231.543	27465.22
231.774	27737.82
232.005	28013.24
232.236	28288.31
232.466	28568.04
232.697	28825.51
232.928	29088.69
233.159	29330.49
233.389	29580.69
233.62	29835
233.851	30065.97
234.082	30303.93
234.312	30521.46
234.543	30732.51
234.774	30943.35
235.004	31135.24
235.235	31331.69
235.466	31514.38
235.696	31701.93
235.927	31873.28
236.157	32046.71
236.388	32223.38
236.618	32393.42
236.849	32554.35
237.08	32714.24
237.31	32879.37
237.541	33034.73
237.771	33197.18
238.002	33352.06
238.232	33513.97
238.463	33672.53
238.693	33822.17
238.923	33966.51
239.154	34105.64
239.384	34251.78
239.615	34386.89
239.845	34515.26
240.075	34645.4
240.306	34772.37
240.536	34898.02
240.766	35009.11
240.997	35129.31
241.227	35241.64
241.457	35347.33
241.687	35459.82
241.918	35575.73
242.148	35688.62
242.378	35801.84
242.608	35915.38
242.839	36012.29
243.069	36108
243.299	36203.17
243.529	36292.77
243.759	36384.98
243.989	36487.55
244.22	36583.4
244.45	36671.95
244.68	36777.6
244.91	36859.6
245.14	36951.68
245.37	37045.17
245.6	37148.13
245.83	37261.26
246.06	37359.53
246.29	37456.71
246.52	37553.17
246.75	37653.69
246.98	37753.84
247.21	37844.58
247.44	37943.89
247.67	38037.62
247.9	38137.35
248.13	38218.38
248.359	38293.57
248.589	38385.26
248.819	38476.49
249.049	38565.44
249.279	38646.17
249.509	38731.86
249.738	38808.78
249.968	38889.8
250.198	38963.86
250.428	39049.17
250.657	39145.97
250.887	39231.91
251.117	39311.57
251.347	39382.64
251.576	39459.38
251.806	39528.69
252.036	39597.69
252.265	39674.44
252.495	39745.78
252.725	39818.98
252.954	39880.13
253.184	39934.73
253.413	40004.71
253.643	40064.29
253.873	40132.37
254.102	40187
254.332	40253.89
254.561	40307.53
254.791	40355.17
255.02	40418.02
255.25	40476.18
255.479	40529.71
255.708	40585.78
255.938	40629.09
256.167	40681.02
256.397	40722.93
256.626	40770.28
256.856	40799.51
257.085	40834.2
257.314	40865.77
257.544	40886.58
257.773	40904.88
258.002	40932.93
258.232	40973.18
258.461	41009.22
258.69	41051.62
258.919	41089.48
259.149	41113.82
259.378	41154.68
259.607	41193.73
259.836	41243.49
260.065	41297.37
260.295	41348.77
260.524	41390.44
260.753	41431.22
260.982	41473.73
261.211	41508.24
261.44	41549.42
261.669	41605.48
261.899	41659.44
262.128	41711.98
262.357	41762.18
262.586	41795.57
262.815	41833.64
263.044	41869.48
263.273	41889.42
263.502	41918.4
263.731	41935.26
263.96	41961.78
264.189	41980.93
264.418	42005.6
264.646	42028.04
264.875	42048.78
265.104	42078.82
265.333	42106.91
265.562	42142.98
265.791	42197.09
266.02	42231.97
266.249	42280.42
266.477	42335.75
266.706	42390.31
266.935	42432.49
267.164	42484.68
267.393	42547.37
267.621	42603.08
267.85	42665.11
268.079	42723.82
268.307	42769.48
268.536	42840.35
268.765	42905.44
268.993	42954.98
269.222	43009.42
269.451	43075.97
269.679	43144.17
269.908	43209.57
270.137	43285.91
270.365	43367.89
270.594	43440.46
270.822	43532.58
271.051	43614.8
271.279	43709.55
271.508	43812.58
271.736	43916.37
271.965	44008.57
272.193	44114.18
272.422	44211.2
272.65	44317.91
272.879	44417.71
273.107	44535.37
273.336	44645
273.564	44754.22
273.792	44855.04
274.021	44943.88
274.249	45045.49
274.477	45167.15
274.706	45275.64
274.934	45385.6
275.162	45494.84
275.391	45609.8
275.619	45731.49
275.847	45849.82
276.075	45968.89
276.304	46096.28
276.532	46233.37
276.76	46372.71
276.988	46505.35
277.216	46628.73
277.445	46765.22
277.673	46908.71
277.901	47044.6
278.129	47165.49
278.357	47281.06
278.585	47415.78
278.813	47560.55
279.041	47697.15
279.269	47829.33
279.497	47961.13
279.725	48104.68
279.954	48231.78
280.182	48363.68
280.41	48498.86
280.637	48640.51
280.865	48784.89
281.093	48913.35
281.321	49034.44
281.549	49165.28
281.777	49294.18
282.005	49422.78
282.233	49553.2
282.461	49692.09
282.689	49812.37
282.916	49945.82
283.144	50078.4
283.372	50219.62
283.6	50359.71
283.828	50498.93
284.055	50627.88
284.283	50759.91
284.511	50889.95
284.739	51015.15
284.966	51130.6
285.194	51263.2
285.422	51382.11
285.649	51484.08
285.877	51590.95
286.105	51702.73
286.332	51812.22
286.56	51925.98
286.788	52048.95
287.015	52166.58
287.243	52287.57
287.47	52411.37
287.698	52506.15
287.925	52619.38
288.153	52758.69
288.381	52883.69
288.608	53001.66
288.836	53109.2
289.063	53221.91
289.29	53319.98
289.518	53416.17
289.745	53509.22
289.973	53622.88
290.2	53754.31
290.428	53868.46
290.655	53964.29
290.882	54073.86
291.11	54179.33
291.337	54284.22
291.564	54394.38
291.792	54501.18
292.019	54610.89
292.246	54716.53
292.473	54794.31
292.701	54868.22
292.928	54958.31
293.155	55053.58
293.382	55133.64
293.61	55215.57
293.837	55302.51
294.064	55375.33
294.291	55439.71
294.518	55505.86
294.745	55579.44
294.972	55661.89
295.2	55731.53
295.427	55793.4
295.654	55851.49
295.881	55908.42
296.108	55976.35
296.335	56036.37
296.562	56108.62
296.789	56179.58
297.016	56230.95
297.243	56279.8
297.47	56337.64
297.697	56391.2
297.924	56438.02
298.151	56488.42
298.378	56533.35
298.604	56568.8
298.831	56591.15
299.058	56610.48
299.285	56626.28
299.512	56643.66
299.739	56653.22
299.966	56662.4
300.192	56676.13
300.419	56682.08
300.646	56674.29
300.873	56665.24
301.099	56667.62
301.326	56667.31
301.553	56658.33
301.78	56661.46
302.006	56669.44
302.233	56668.93
302.46	56661.04
302.686	56653.08
302.913	56632.98
303.14	56624.28
303.366	56599.91
303.593	56564.95
303.819	56548.69
304.046	56532.78
304.272	56508.37
304.499	56483.15
304.725	56458.31
304.952	56427.55
305.179	56399.11
305.405	56375.84
305.631	56327.95
305.858	56312.88
306.084	56286.88
306.311	56255.44
306.537	56206.89
306.764	56166.68
306.99	56127.11
307.216	56106.22
307.443	56048.49
307.669	55990.08
307.895	55943.22
308.122	55916.51
308.348	55859.93
308.574	55815.64
308.801	55759.08
309.027	55713.84
309.253	55651.88
309.479	55593.33
309.706	55517.49
309.932	55479.15
310.158	55419.35
310.384	55358.22
310.61	55292.84
310.837	55233.11
311.063	55164.04
311.289	55095.78
311.515	55024.24
311.741	54955.68
311.967	54881.37
312.193	54802.88
312.419	54717.88
312.645	54644.73
312.871	54566.58
313.097	54497.31
313.323	54418.91
313.549	54347.2
313.775	54277.17
314.001	54198.75
314.227	54121
314.453	54047.86
314.679	53967.44
314.905	53881.82
315.131	53798.68
315.357	53713.68
315.583	53613.84
315.809	53520.78
316.034	53437.22
316.26	53357.98
316.486	53286.98
316.712	53200.31
316.938	53106.53
317.163	53023.71
317.389	52937.09
317.615	52856.35
317.841	52770.49
318.066	52689.44
318.292	52612.53
318.518	52506.93
318.743	52422
318.969	52334.97
319.195	52254.53
319.42	52186.26
319.646	52094.91
319.872	52010.88
320.097	51926.55
320.323	51850.8
320.548	51768.06
320.774	51692.73
320.999	51617.46
321.225	51522.77
321.45	51430.48
321.676	51354.53
321.901	51263.64
322.127	51197.31
322.352	51140.69
322.578	51074.86
322.803	51005.55
323.029	50928.17
323.254	50854.04
323.479	50792.86
323.705	50729.88
323.93	50673.09
324.155	50596.95
324.381	50536.48
324.606	50468.6
324.831	50386.88
325.057	50293.8
325.282	50201.24
325.507	50125.33
325.732	50050.17
325.958	49961.09
326.183	49886.35
326.408	49783.62
326.633	49703.46
326.858	49625.42
327.084	49539.53
327.309	49463.24
327.534	49400.28
327.759	49339.93
327.984	49281.35
328.209	49206.6
328.434	49143.93
328.659	49069.64
328.884	49022.75
329.109	48958.35
329.334	48885.95
329.559	48828.06
329.784	48756.78
330.009	48694.2
330.234	48617.95
330.459	48535.04
330.684	48456.89
330.909	48374.77
331.134	48288.88
331.359	48198.42
331.584	48116.66
331.809	48034.73
332.034	47953.26
332.259	47869
332.483	47777.82
332.708	47701
332.933	47620.29
333.158	47540.31
333.383	47474.13
333.607	47407.51
333.832	47342.77
334.057	47274.77
334.282	47213.13
334.506	47133.89
334.731	47070.18
334.956	47002.6
335.18	46937.06
335.405	46874.48
335.63	46814.58
335.854	46740.57
336.079	46676.53
336.303	46594.08
336.528	46519.51
336.753	46425.29
336.977	46351.29
337.202	46270.66
337.426	46189.15
337.651	46098.91
337.875	46007.93
338.1	45927.15
338.324	45840.97
338.549	45751.86
338.773	45679.8
338.997	45597.84
339.222	45526.22
339.446	45459.29
339.671	45378.88
339.895	45313.22
340.119	45251.09
340.344	45190.89
340.568	45111.82
340.792	45034.55
341.017	44955.95
341.241	44867.88
341.465	44782
341.689	44698.66
341.914	44605.24
342.138	44524
342.362	44436.48
342.586	44333.8
342.811	44230.11
343.035	44124.33
343.259	44022.38
343.483	43916.86
343.707	43828.97
343.931	43754.09
344.155	43654.13
344.38	43571.46
344.604	43492.06
344.828	43404.78
345.052	43332.66
345.276	43263.46
345.5	43194.98
345.724	43134.8
345.948	43063.33
346.172	42990.44
346.396	42909.84
346.62	42847.28
346.844	42761.29
347.068	42666.38
347.292	42565.89
347.515	42452.06
347.739	42347.75
347.963	42239.46
348.187	42137.38
348.411	42026.58
348.635	41916.69
348.859	41792.2
349.082	41677.71
349.306	41563.11
349.53	41455.95
349.754	41353.62
349.977	41249.98
350.201	41151.2
350.425	41061.02
350.649	40948.13
350.872	40865.68
351.096	40756.57
351.32	40657.68
351.543	40549.69
351.767	40452.48
351.99	40349.33
352.214	40241
352.438	40148.69
352.661	40039
352.885	39927.08
353.108	39825.68
353.332	39706.97
353.555	39611.22
353.779	39503.29
354.002	39397.42
354.226	39284.38
354.449	39172.18
354.673	39076.55
354.896	38974.04
355.12	38874.73
355.343	38780.89
355.566	38680.15
355.79	38580.24
356.013	38484.31
356.237	38389.57
356.46	38298.38
356.683	38198.75
356.907	38110.24
357.13	38003.28
357.353	37894.29
357.576	37787.64
357.8	37677.91
358.023	37580.18
358.246	37479.28
358.469	37360.53
358.693	37256.82
358.916	37139.2
359.139	37029.24
359.362	36923.95
359.585	36833.38
359.808	36750.8
360.031	36654.86
360.255	36550.64
360.478	36444.42
360.701	36351.22
360.924	36268.48
361.147	36179.11
361.37	36097.04
361.593	36026.58
361.816	35937.17
362.039	35842.08
362.262	35744.11
362.485	35645.6
362.708	35554.2
362.931	35455.28
363.154	35360.49
363.377	35269.11
363.599	35175.29
363.822	35096.6
364.045	35004.55
364.268	34923.73
364.491	34844.88
364.714	34776.35
364.936	34731.37
365.159	34700.89
365.382	34685.93
365.605	34669.77
365.828	34654.24
366.05	34652.55
366.273	34645.66
366.496	34636.4
366.718	34616.33
366.941	34589.26
367.164	34543.78
367.386	34483.48
367.609	34418.15
367.832	34346.73
368.054	34265.33
368.277	34162.44
368.5	34046.93
368.722	33902.15
368.945	33752.84
369.167	33613.13
369.39	33485.91
369.612	33362.75
369.835	33247.8
370.057	33121.82
370.28	33003.6
370.502	32890.46
370.725	32799.75
370.947	32709.06
371.169	32640.38
371.392	32586.68
371.614	32521.97
371.837	32447.24
372.059	32377.35
372.281	32299.6
372.504	32250.08
372.726	32184.18
372.948	32126.8
373.171	32075.73
373.393	32037.93
373.615	32019.31
373.837	32016.93
374.06	32043.69
374.282	32088.08
374.504	32126.55
374.726	32161.84
374.948	32169.37
375.17	32172.08
375.393	32169.49
375.615	32169.37
375.837	32175
376.059	32173.11
376.281	32177.2
376.503	32185.33
376.725	32199.46
376.947	32226.04
377.169	32274.82
377.391	32336.08
377.613	32428.78
377.835	32547.69
378.057	32688.13
378.279	32804.57
378.501	32899.75
378.723	32925.86
378.945	32903.42
379.167	32862
379.389	32836.04
379.611	32794.42
379.833	32747.31
380.054	32651.86
380.276	32522.11
380.498	32356.97
380.72	32216.31
380.942	32116.11
381.163	32091.64
381.385	32124.13
381.607	32163.77
381.829	32164.66
382.05	32153.98
382.272	32108.13
382.494	32098.91
382.716	32095.51
382.937	32092.78
383.159	32097.37
383.381	32072.73
383.602	32033.18
383.824	31958.42
384.045	31863.17
384.267	31784.4
384.488	31715.71
384.71	31684.48
384.932	31670.22
385.153	31663.35
385.375	31669.84
385.596	31672.51
385.818	31705.77
386.039	31764.84
386.261	31852.48
386.482	31968.08
386.703	32096.64
386.925	32238.11
387.146	32392.33
387.368	32536.69
387.589	32675.42
387.81	32758.98
388.032	32772.57
388.253	32706.29
388.474	32573.31
388.696	32405.86
388.917	32254.22
389.138	32092.09
389.359	31939.06
389.581	31790.98
389.802	31633.28
390.023	31487.08
390.244	31391.08
390.465	31376.18
390.687	31449.51
390.908	31588.75
391.129	31798.11
391.35	32028.98
391.571	32328.37
391.792	32641.6
392.013	32927.53
392.234	33150.6
392.455	33292.33
392.677	33378.57
392.898	33415.82
393.119	33431.4
393.34	33429.88
393.561	33376.82
393.782	33271.97
394.003	33079.44
394.223	32830.15
394.444	32560.77
394.665	32349.38
394.886	32209.68
395.107	32132.95
395.328	32103.98
395.549	32093.82
395.77	32072.37
395.99	32063.42
396.211	32103.64
396.432	32205.11
396.653	32369.75
396.874	32613.29
397.094	32893.2
397.315	33225.17
397.536	33545.89
397.757	33790.77
397.977	33944.88
398.198	34029.44
398.419	34056.33
398.639	34019.06
398.86	33900
399.081	33707.8
399.301	33449.4
399.522	33152.77
399.742	32826.2
399.963	32509.26
400.184	32232.13
400.404	31980.46
400.625	31768.04
400.845	31580.06
401.066	31418.31
401.286	31296.75
401.507	31212.48
401.727	31138.24
401.948	31063.53
402.168	30971.97
402.388	30888.28
402.609	30817
402.829	30796.26
403.05	30812.33
403.27	30867
403.49	30932.42
403.711	31029.22
403.931	31164.86
404.151	31324.8
404.372	31508.82
404.592	31678.55
404.812	31788.09
405.032	31824.24
405.253	31775.84
405.473	31663.48
405.693	31503.58
405.913	31291.68
406.133	31024.95
406.353	30707.35
406.574	30369.89
406.794	30025.98
407.014	29728.6
407.234	29513.17
407.454	29397.33
407.674	29361.64
407.894	29364.58
408.114	29364.42
408.334	29385.29
408.554	29453.62
408.774	29546.28
408.994	29634.69
409.214	29674.55
409.434	29634.13
409.654	29514.86
409.874	29383.22
410.094	29246.71
410.314	29132.38
410.534	29040.77
410.754	28982.66
410.974	28932.8
411.193	28909.71
411.413	28951.46
411.633	29054.57
411.853	29195.68
412.073	29368.64
412.292	29520.95
412.512	29645.8
412.732	29728.38
412.952	29774.75
413.171	29759.42
413.391	29694.95
413.611	29595.98
413.831	29445.22
414.05	29271.68
414.27	29096.13
414.489	28906.09
414.709	28716.29
414.929	28554
415.148	28419.77
415.368	28330.55
415.587	28277.35
415.807	28221.68
416.026	28151.11
416.246	28075.22
416.465	27999.71
416.685	27927.31
416.904	27868.62
417.124	27799.77
417.343	27731.48
417.563	27674.24
417.782	27615.82
418.002	27585.68
418.221	27587.09
418.44	27609.31
418.66	27634.78
418.879	27655.48
419.098	27710.98
419.318	27832.44
419.537	28008.88
419.756	28227.37
419.976	28486.38
420.195	28820.46
420.414	29200.33
420.633	29611.84
420.853	30001.8
421.072	30339.88
421.291	30628.18
421.51	30841.64
421.729	30980.08
421.948	31089.78
422.168	31177.89
422.387	31214.88
422.606	31130.62
422.825	30912.33
423.044	30575.82
423.263	30216.82
423.482	29909.35
423.701	29670.42
423.92	29480.93
424.139	29300.98
424.358	29068.06
424.577	28754.44
424.796	28376.04
425.015	28002.08
425.234	27689.35
425.453	27463.17
425.672	27302.82
425.891	27209.26
426.11	27207.29
426.328	27301.71
426.547	27395.29
426.766	27463.26
426.985	27464.57
427.204	27471.37
427.422	27532.98
427.641	27631.37
427.86	27735.4
428.079	27855.88
428.297	28016.28
428.516	28186.57
428.735	28331.15
428.954	28504.48
429.172	28734.38
429.391	29049.26
429.61	29383.68
429.828	29653.11
430.047	29825.46
430.265	29884.46
430.484	29789.38
430.703	29500.71
430.921	29038.51
431.14	28469.6
431.358	27895.15
431.577	27344.29
431.795	26832.91
432.014	26376.57
432.232	26097.48
432.451	26105.75
432.669	26393.77
432.887	26795.71
433.106	27142.49
433.324	27321.95
433.543	27381.86
433.761	27423.02
433.979	27497.2
434.198	27584.82
434.416	27656.68
