Data from dark_MAYP1115451__0__10-10-34-247.txt Node

Date: Wed Jun 12 10:10:34 MDT 2024
User: Modes Lab
Spectrometer: MAYP111545
Trigger mode: 0
Integration Time (sec): 8.000000E-3
Scans to average: 5
Electric dark correction enabled: true
Nonlinearity correction enabled: false
Boxcar width: 5
XAxis mode: Wavelengths
Number of Pixels in Spectrum: 2068
>>>>>Begin Spectral Data<<<<<
165.214	150.77
165.449	143.91
165.683	145.5
165.918	148.62
166.152	149.86
166.387	150.4
166.621	75.65
166.856	106.4
167.09	117.53
167.325	132.13
167.559	142.87
167.794	152.76
168.028	157.15
168.263	157.04
168.497	154.85
168.732	154.87
168.966	154.56
169.2	154.35
169.435	153.8
169.669	153.38
169.903	153.45
170.138	153.67
170.372	153.91
170.606	154.6
170.841	154.31
171.075	154.51
171.309	153.95
171.544	153.84
171.778	153.53
172.012	152.85
172.246	152.76
172.48	152.93
172.715	153.09
172.949	153.05
173.183	152.78
173.417	152.73
173.651	152.95
173.885	152.82
174.119	152.95
174.354	152.58
174.588	153.05
174.822	152.98
175.056	153.05
175.29	153.22
175.524	151.96
175.758	151.53
175.992	151.47
176.226	150.95
176.46	150.71
176.694	150.71
176.928	150.82
177.162	150.42
177.396	150.53
177.63	150.84
177.864	150.05
178.097	150.47
178.331	150.58
178.565	150.67
178.799	151.4
179.033	151.58
179.267	151.96
179.5	151.35
179.734	151.93
179.968	152.27
180.202	152.09
180.436	152.56
180.669	152.69
180.903	152.16
181.137	152.24
181.371	151.16
181.604	150.85
181.838	150.4
182.072	151.04
182.305	150.33
182.539	149.73
182.772	150.15
183.006	150.27
183.24	149.73
183.473	152.09
183.707	152.31
183.94	153.4
184.174	153.65
184.408	153.84
184.641	153.87
184.875	154.36
185.108	154.44
185.342	154.18
185.575	154.29
185.808	155.13
186.042	153.47
186.275	153.55
186.509	152.62
186.742	153.05
186.976	152.42
187.209	151.95
187.442	151.64
187.676	151.16
187.909	150.85
188.142	150.71
188.376	149.95
188.609	149.07
188.842	148.38
189.076	148.75
189.309	148.27
189.542	148.29
189.775	148.62
190.009	149.07
190.242	149.2
190.475	149.6
190.708	149.75
190.941	149.82
191.174	150.62
191.408	151.05
191.641	150.91
191.874	151.33
192.107	151.56
192.34	151.95
192.573	152.31
192.806	151.84
193.039	151.69
193.272	151.24
193.505	151.51
193.738	151.55
193.971	150.95
194.204	151
194.437	150.02
194.67	150.11
194.903	149.98
195.136	149.22
195.369	149.78
195.602	149.8
195.835	150.18
196.068	150.58
196.301	150.15
196.533	150.85
196.766	150.85
196.999	151.62
197.232	151.78
197.465	150.85
197.698	151.15
197.93	151.73
198.163	151.6
198.396	151.47
198.629	150.89
198.861	151
199.094	150.62
199.327	151.49
199.559	150.84
199.792	150.55
200.025	150.84
200.257	150.56
200.49	150.2
200.723	150.29
200.955	149.87
201.188	150.22
201.42	150.87
201.653	150.82
201.886	150.36
202.118	150.78
202.351	151
202.583	151.16
202.816	151.8
203.048	152
203.281	151.69
203.513	152.04
203.745	152.73
203.978	151.67
204.21	151.58
204.443	151.73
204.675	152.04
204.907	151.65
205.14	151.91
205.372	151.45
205.605	151.24
205.837	151.38
206.069	151.33
206.302	150.4
206.534	151.04
206.766	151.35
206.998	150.33
207.231	149.67
207.463	149.96
207.695	150.82
207.927	151.02
208.159	151.13
208.392	150.64
208.624	150.38
208.856	150.13
209.088	150.45
209.32	149.98
209.552	150.4
209.784	150.33
210.017	150.35
210.249	149.36
210.481	149.4
210.713	149.4
210.945	149.76
211.177	150
211.409	150.76
211.641	150.33
211.873	150.76
212.105	151.27
212.337	151.73
212.569	151.87
212.801	152.04
213.033	151.91
213.264	152.07
213.496	151.82
213.728	151.58
213.96	150.89
214.192	150.36
214.424	150.6
214.656	149.67
214.887	149.89
215.119	149.89
215.351	149.71
215.583	149.89
215.815	150.38
216.046	150.6
216.278	150.4
216.51	150.75
216.741	151.02
216.973	150.05
217.205	150.31
217.436	150.25
217.668	151.58
217.9	151.6
218.131	150.93
218.363	150.04
218.595	150.89
218.826	150.84
219.058	151.2
219.289	151.53
219.521	152.02
219.752	152.49
219.984	152.18
220.215	151.29
220.447	151.27
220.678	151.87
220.91	151.93
221.141	150.84
221.373	151.04
221.604	150.64
221.836	150.78
222.067	151.73
222.298	151.84
222.53	152.22
222.761	151.49
222.993	151.09
223.224	151.33
223.455	152.02
223.686	151.95
223.918	152.02
224.149	152.53
224.38	152.04
224.612	150.96
224.843	150.16
225.074	150.13
225.305	150.87
225.536	150.84
225.768	150.36
225.999	150.16
226.23	149.98
226.461	150.44
226.692	149.78
226.923	150.24
227.155	151.53
227.386	152.36
227.617	152.04
227.848	151.6
228.079	152.35
228.31	152.8
228.541	153.22
228.772	153.85
229.003	153.35
229.234	153.62
229.465	153
229.696	151.91
229.927	151.62
230.158	151.13
230.389	150.58
230.62	150.96
230.85	150.6
231.081	149.65
231.312	149.62
231.543	150.25
231.774	150.2
232.005	150.65
232.236	150.95
232.466	150.64
232.697	151
232.928	151.4
233.159	150.89
233.389	150.76
233.62	151.15
233.851	150.85
234.082	149.47
234.312	149.67
234.543	149.71
234.774	149.6
235.004	150.47
235.235	150.91
235.466	150.69
235.696	150.87
235.927	151.65
236.157	151.31
236.388	151.82
236.618	152.76
236.849	152.51
237.08	152.58
237.31	152.65
237.541	151.44
237.771	150.53
238.002	150.87
238.232	150.93
238.463	150.25
238.693	151.07
238.923	150.38
239.154	150.53
239.384	150.95
239.615	151.6
239.845	151.15
240.075	151.45
240.306	151.82
240.536	151.62
240.766	151.67
240.997	151.36
241.227	150.73
241.457	151.11
241.687	151.11
241.918	150.67
242.148	149.71
242.378	149.62
242.608	149.96
242.839	150.47
243.069	149.36
243.299	148.98
243.529	150.91
243.759	151.02
243.989	150.82
244.22	150.4
244.45	150.47
244.68	150.6
244.91	151.31
245.14	151.62
245.37	151.64
245.6	152.58
245.83	152.65
246.06	150.51
246.29	150.56
246.52	150.44
246.75	150.89
246.98	151.29
247.21	150.89
247.44	150.05
247.67	149.87
247.9	149.64
248.13	149.55
248.359	149.35
248.589	149.89
248.819	149.84
249.049	149.84
249.279	149.58
249.509	149.04
249.738	149.67
249.968	150.64
250.198	150.11
250.428	150.38
250.657	149.67
250.887	149.78
251.117	150.2
251.347	149.62
251.576	150.15
251.806	149.91
252.036	149.47
252.265	149.24
252.495	148.51
252.725	148.73
252.954	148.56
253.184	149.2
253.413	149.51
253.643	149
253.873	149.45
254.102	149.65
254.332	149.33
254.561	149.58
254.791	149.27
255.02	148.98
255.25	148.51
255.479	148.18
255.708	148.53
255.938	148.82
256.167	148.85
256.397	148.31
256.626	147.64
256.856	148.29
257.085	148.35
257.314	148.16
257.544	148.75
257.773	149.25
258.002	148.78
258.232	148.4
258.461	147.44
258.69	146.65
258.919	146.62
259.149	145.96
259.378	146.27
259.607	146.09
259.836	145.84
260.065	145.51
260.295	145.29
260.524	145.67
260.753	145.42
260.982	144.71
261.211	145.49
261.44	145.6
261.669	146.02
261.899	145.4
262.128	144.93
262.357	144.44
262.586	144.69
262.815	144.33
263.044	144.33
263.273	146.35
263.502	147.64
263.731	147.65
263.96	147.75
264.189	148.15
264.418	147.98
264.646	148.91
264.875	148.75
265.104	148.27
265.333	148.53
265.562	148.6
265.791	146.31
266.02	145.4
266.249	145.65
266.477	145.67
266.706	144.84
266.935	144.89
267.164	144.69
267.393	145.78
267.621	145.96
267.85	145.53
268.079	146
268.307	146.18
268.536	146.33
268.765	145.93
268.993	145.18
269.222	146.07
269.451	145.82
269.679	145.78
269.908	146.15
270.137	145.8
270.365	146.51
270.594	146.27
270.822	146.27
271.051	145.71
271.279	145.47
271.508	145.93
271.736	145.62
271.965	145.56
272.193	145.04
272.422	144.44
272.65	144.33
272.879	143.85
273.107	143.18
273.336	143.35
273.564	144.35
273.792	144.35
274.021	144.13
274.249	143.73
274.477	143.91
274.706	144.33
274.934	144.76
275.162	144.69
275.391	145.65
275.619	146.38
275.847	146.55
276.075	146.18
276.304	146.18
276.532	145.87
276.76	146.36
276.988	146.25
277.216	146.44
277.445	145.82
277.673	145.64
277.901	144.64
278.129	144.11
278.357	143.69
278.585	143.71
278.813	143.58
279.041	143.8
279.269	143.38
279.497	142.69
279.725	141.96
279.954	142.18
280.182	143.16
280.41	143.16
280.637	143.05
280.865	143.38
281.093	142.64
281.321	142.56
281.549	142.62
281.777	143.16
282.005	143.96
282.233	143.95
282.461	143.89
282.689	143.13
282.916	143.73
283.144	143.53
283.372	143.62
283.6	143.78
283.828	143.98
284.055	144.35
284.283	143.75
284.511	144.25
284.739	144.91
284.966	145.36
285.194	145.44
285.422	144.53
285.649	144.56
285.877	143.69
286.105	144.35
286.332	144
286.56	144.47
286.788	144.55
287.015	144.85
287.243	143.89
287.47	143.69
287.698	143.4
287.925	144.38
288.153	145.04
288.381	145.11
288.608	144.42
288.836	144.67
289.063	144.75
289.29	144.33
289.518	143.71
289.745	144.07
289.973	143.91
290.2	144.25
290.428	143.87
290.655	143.36
290.882	143.49
291.11	144.04
291.337	144.25
291.564	143.73
291.792	144.56
292.019	144.44
292.246	144.73
292.473	144.69
292.701	144.85
292.928	144.69
293.155	144.62
293.382	144.76
293.61	143.98
293.837	143.6
294.064	143.36
294.291	142.42
294.518	142.31
294.745	142.33
294.972	142.24
295.2	141.44
295.427	141.78
295.654	141.87
295.881	141.8
296.108	142.53
296.335	142.22
296.562	142.67
296.789	143.35
297.016	143.76
297.243	142.89
297.47	142.95
297.697	142.95
297.924	143.38
298.151	142.95
298.378	143.24
298.604	143.55
298.831	144.16
299.058	143.73
299.285	143.89
299.512	143.51
299.739	144.45
299.966	144.51
300.192	144.56
300.419	143.44
300.646	143.27
300.873	142.65
301.099	141.75
301.326	141.27
301.553	141.07
301.78	141.15
302.006	140.24
302.233	139.89
302.46	139.11
302.686	139.51
302.913	139.35
303.14	140.25
303.366	141.16
303.593	141.51
303.819	142.24
304.046	141.95
304.272	141.2
304.499	141.96
304.725	142.16
304.952	142.67
305.179	143.35
305.405	144.62
305.631	144.45
305.858	144.89
306.084	144.84
306.311	144.13
306.537	144.33
306.764	144.58
306.99	144.35
307.216	144.18
307.443	143.49
307.669	142.85
307.895	141.71
308.122	140.78
308.348	140.56
308.574	140.35
308.801	140.51
309.027	140
309.253	139.82
309.479	139.75
309.706	139.84
309.932	139.49
310.158	138.93
310.384	139.42
310.61	140.38
310.837	139.44
311.063	139.67
311.289	139.6
311.515	140.53
311.741	140.58
311.967	141.35
312.193	140.6
312.419	140.55
312.645	140.67
312.871	139.84
313.097	139.56
313.323	139.69
313.549	140.04
313.775	140.18
314.001	139.65
314.227	139.38
314.453	139.27
314.679	139.53
314.905	140.49
315.131	140.82
315.357	141.22
315.583	140.96
315.809	140.31
316.034	139.98
316.26	140.33
316.486	140.76
316.712	141.09
316.938	140.31
317.163	140.95
317.389	140.58
317.615	140.69
317.841	140.65
318.066	140.71
318.292	141.45
318.518	141.35
318.743	140.13
318.969	140.6
319.195	140.87
319.42	140.53
319.646	140.45
319.872	140.36
320.097	140.31
320.323	140.36
320.548	140.96
320.774	141.31
320.999	140.56
321.225	140.56
321.45	140.27
321.676	139.82
321.901	140.71
322.127	141.2
322.352	142.13
322.578	141.95
322.803	141.75
323.029	141.31
323.254	140.98
323.479	141
323.705	140.75
323.93	139.58
324.155	140.64
324.381	140.44
324.606	140.27
324.831	140.44
325.057	140.64
325.282	140.47
325.507	140.24
325.732	140.44
325.958	141.22
326.183	141.95
326.408	142.49
326.633	141.82
326.858	142.13
327.084	141.51
327.309	140.65
327.534	140.29
327.759	140.49
327.984	140.45
328.209	140.15
328.434	140.85
328.659	141.04
328.884	141.07
329.109	140.6
329.334	140.27
329.559	140.33
329.784	139.76
330.009	139.49
330.234	139.51
330.459	139.49
330.684	139.38
330.909	138.75
331.134	138.56
331.359	138.73
331.584	139.07
331.809	139.04
332.034	138.62
332.259	138.82
332.483	139.42
332.708	138.69
332.933	139.15
333.158	138.75
333.383	138.8
333.607	138.87
333.832	138.18
334.057	137.78
334.282	137.29
334.506	137.67
334.731	137.93
334.956	138.27
335.18	138.64
335.405	138.16
335.63	138.18
335.854	137.55
336.079	137.25
336.303	137.98
336.528	137.62
336.753	136.76
336.977	136.22
337.202	136.69
337.426	136.05
337.651	135.82
337.875	135.31
338.1	135.8
338.324	136.27
338.549	136.45
338.773	136.18
338.997	137.16
339.222	137.53
339.446	138.15
339.671	137.62
339.895	137.47
340.119	137.84
340.344	138.62
340.568	139.04
340.792	139.18
341.017	139.16
341.241	139.45
341.465	138.65
341.689	138.75
341.914	138.51
342.138	138.07
342.362	138.09
342.586	138.29
342.811	138.25
343.035	137.98
343.259	137.4
343.483	137.15
343.707	137.16
343.931	138.33
344.155	138.2
344.38	137.89
344.604	138.8
344.828	139.35
345.052	139.02
345.276	138.85
345.5	138.18
345.724	137.78
345.948	137.44
346.172	138.09
346.396	136.56
346.62	138.22
346.844	138.69
347.068	137.87
347.292	137.71
347.515	137.78
347.739	139.33
347.963	139.78
348.187	140.16
348.411	140.93
348.635	139.95
348.859	140.58
349.082	139.71
349.306	138.96
349.53	139.73
349.754	139.02
349.977	139.11
350.201	137.27
350.425	137.15
350.649	137.36
350.872	137.05
351.096	136.85
351.32	136.98
351.543	136.71
351.767	137.15
351.99	136.51
352.214	137.09
352.438	137.05
352.661	136.96
352.885	137.05
353.108	136.98
353.332	137
353.555	136.51
353.779	136.07
354.002	136.4
354.226	136.4
354.449	136.84
354.673	136.98
354.896	137.11
355.12	137.38
355.343	137.13
355.566	137.58
355.79	137.8
356.013	137.91
356.237	137.95
356.46	137.67
356.683	137.29
356.907	137.11
357.13	137.13
357.353	136.18
357.576	136.55
357.8	136.56
358.023	135.58
358.246	135.38
358.469	136.09
358.693	136.31
358.916	136.24
359.139	136.64
359.362	136.75
359.585	136.11
359.808	136.95
360.031	135.69
360.255	135.73
360.478	136.71
360.701	136.31
360.924	135.91
361.147	135.85
361.37	135.6
361.593	136.09
361.816	135.47
362.039	135.76
362.262	135.58
362.485	135.95
362.708	135.55
362.931	135.64
363.154	136.11
363.377	136.22
363.599	135.82
363.822	136
364.045	135.78
364.268	135.93
364.491	135.76
364.714	135.56
364.936	136.02
365.159	136.56
365.382	135.16
365.605	134.91
365.828	136.65
366.05	136.95
366.273	137.07
366.496	137.36
366.718	138.22
366.941	138.76
367.164	139.05
367.386	139.35
367.609	139.45
367.832	140.6
368.054	140.87
368.277	139.35
368.5	139.24
368.722	139.27
368.945	138.71
369.167	138.65
369.39	138.13
369.612	138.15
369.835	137.55
370.057	137.31
370.28	136.89
370.502	136.51
370.725	136.09
370.947	136.67
371.169	136.47
371.392	136.53
371.614	136
371.837	136.04
372.059	135.93
372.281	135.45
372.504	135.65
372.726	135.6
372.948	136.15
373.171	136.18
373.393	135.71
373.615	135.44
373.837	135.71
374.06	134.93
374.282	135.16
374.504	135.31
374.726	135.65
374.948	135.51
375.17	134.87
375.393	134.69
375.615	134.02
375.837	134.69
376.059	135.31
376.281	134.51
376.503	135.62
376.725	135.02
376.947	134.71
377.169	134.47
377.391	134.36
377.613	135.56
377.835	135.89
378.057	137.16
378.279	136.35
378.501	136.44
378.723	137.51
378.945	137.2
379.167	137.56
379.389	137.55
379.611	138.22
379.833	138
380.054	137.58
380.276	137.44
380.498	136.85
380.72	136.95
380.942	136.58
381.163	136.05
381.385	136.13
381.607	136.15
381.829	136.4
382.05	136.47
382.272	136.22
382.494	136.44
382.716	136.35
382.937	136.36
383.159	136.69
383.381	136.67
383.602	136.82
383.824	136.85
384.045	136.42
384.267	136.44
384.488	136.11
384.71	136.16
384.932	135.55
385.153	134.91
385.375	135.82
385.596	135.69
385.818	135.98
386.039	135.51
386.261	135.35
386.482	135.93
386.703	135.27
386.925	135.15
387.146	135.56
387.368	135.87
387.589	136.09
387.81	135.44
388.032	135.55
388.253	135.36
388.474	135.45
388.696	135.71
388.917	135.84
389.138	137.35
389.359	137.53
389.581	137.29
389.802	137.4
390.023	137.53
390.244	137.33
390.465	137.29
390.687	137.35
390.908	136.84
391.129	137.05
391.35	136.73
391.571	135.2
391.792	135.35
392.013	135.38
392.234	134.73
392.455	134.85
392.677	134.8
392.898	134.45
393.119	134.22
393.34	134.07
393.561	133.91
393.782	134.22
394.003	134.93
394.223	134.47
394.444	134.49
394.665	134.91
394.886	134.55
395.107	134.31
395.328	134.75
395.549	135.09
395.77	135.45
395.99	135.07
396.211	134.49
396.432	133.85
396.653	134.11
396.874	134.62
397.094	134.8
397.315	134.75
397.536	135.16
397.757	135.51
397.977	135.49
398.198	135.82
398.419	136.07
398.639	136.44
398.86	137.27
399.081	137.44
399.301	136.76
399.522	136.02
399.742	135.89
399.963	135.64
400.184	134.16
400.404	133.78
400.625	133.15
400.845	132.93
401.066	132.93
401.286	132.16
401.507	131.65
401.727	131.76
401.948	132.2
402.168	133.05
402.388	132.4
402.609	133.76
402.829	133.8
403.05	134.78
403.27	134.67
403.49	134.71
403.711	135.13
403.931	135.62
404.151	135.84
404.372	136
404.592	135.62
404.812	136.36
405.032	135.95
405.253	135.65
405.473	135.22
405.693	135.58
405.913	135.31
406.133	135.55
406.353	137.49
406.574	137.4
406.794	137.38
407.014	136.96
407.234	136.65
407.454	136.44
407.674	136.56
407.894	136.89
408.114	136.87
408.334	136.96
408.554	136.05
408.774	133.95
408.994	133.25
409.214	133.29
409.434	133.45
409.654	134.07
409.874	134.51
410.094	134.42
410.314	133.35
410.534	133.29
410.754	133.76
410.974	134.49
411.193	134.35
411.413	135.09
411.633	134.93
411.853	135.22
412.073	134.98
412.292	134.24
412.512	134.42
412.732	135.35
412.952	134.93
413.171	134.64
413.391	134.85
413.611	133.96
413.831	133.78
414.05	133.89
414.27	132.87
414.489	133.04
414.709	133.33
414.929	133.47
415.148	132.93
415.368	132.47
415.587	132.18
415.807	131.44
416.026	131.84
416.246	131.65
416.465	131.56
416.685	132.42
416.904	131.82
417.124	131.04
417.343	131.53
417.563	130.93
417.782	131.27
418.002	132.38
418.221	132.62
418.44	133.02
418.66	132.65
418.879	132.98
419.098	133.24
419.318	133.44
419.537	133.89
419.756	133.44
419.976	133.58
420.195	133.47
420.414	132.27
420.633	131.87
420.853	131.75
421.072	132.58
421.291	132.91
421.51	132.56
421.729	132.16
421.948	132.22
422.168	131.93
422.387	132.53
422.606	132.42
422.825	132.55
423.044	132.47
423.263	132.75
423.482	132.11
423.701	131.11
423.92	131.07
424.139	131.44
424.358	131.11
424.577	131.04
424.796	131.33
425.015	131.18
425.234	130.84
425.453	131.11
425.672	131
425.891	131.02
426.11	131.13
426.328	131.2
426.547	131.35
426.766	131.78
426.985	131.31
427.204	131.24
427.422	131.4
427.641	131.53
427.86	132.16
428.079	132.02
428.297	132.82
428.516	132.44
428.735	132.05
428.954	132.38
429.172	132.51
429.391	133.44
429.61	133.27
429.828	133.53
430.047	133.87
430.265	133.98
430.484	134.2
430.703	133.62
430.921	134.02
431.14	134.2
431.358	133.78
431.577	133.4
431.795	132.82
432.014	132.78
432.232	133.15
432.451	133.25
432.669	132.93
432.887	132.82
433.106	133.38
433.324	133.76
433.543	133.78
433.761	133.65
433.979	133.42
434.198	133.25
434.416	133.93
434.634	133.65
434.853	132.75
435.071	132.27
435.289	132
435.507	131.6
435.726	131.58
435.944	131.38
436.162	131.49
436.38	131.58
436.598	131.69
436.817	131.2
437.035	130.78
437.253	131.24
437.471	131.33
437.689	131.04
437.907	131.07
438.125	130.05
438.343	129.76
438.561	129.02
438.78	128.82
438.998	129.73
439.216	129
439.434	128.65
439.652	128.91
439.869	128.04
440.087	128.44
440.305	127.87
440.523	128.05
440.741	128.73
440.959	128.31
441.177	128.45
441.395	127.95
441.613	128.67
441.831	128.8
442.048	127.78
442.266	128.76
442.484	128.02
442.702	127.82
442.919	128.13
443.137	128.56
443.355	129.24
443.573	129.58
443.79	129.09
444.008	128.76
444.226	128.93
444.443	129.62
444.661	128.89
444.879	129.55
445.096	129.95
445.314	129.82
445.532	129.22
445.749	129.27
445.967	129.33
446.184	129.78
446.402	130
446.619	129.8
446.837	129.42
447.054	129.58
447.272	129.51
447.489	129.11
447.707	128.69
447.924	128.64
448.141	129.24
448.359	128.51
448.576	127.55
448.794	126.73
449.011	126.87
449.228	126.78
449.446	127.33
449.663	126.71
449.88	126.95
450.098	127.71
450.315	127.56
450.532	127.22
450.749	127.47
450.967	128.13
451.184	128.09
451.401	128.22
451.618	127.89
451.835	128.24
452.052	128.95
452.27	128.71
452.487	127.98
452.704	127.49
452.921	127.56
453.138	127.55
453.355	127.05
453.572	127.71
453.789	127.75
454.006	128.4
454.223	127.67
454.44	127.13
454.657	127.02
454.874	127.11
455.091	126.56
455.308	126.16
455.525	125.8
455.742	125.87
455.959	125.16
456.176	124.76
456.393	124.45
456.609	123.75
456.826	124.07
457.043	124.22
457.26	124.22
457.477	124.71
457.693	124.18
457.91	125.15
458.127	124.69
458.344	124.73
458.56	124.67
458.777	124.45
458.994	124.98
459.21	124.71
459.427	124.44
459.644	124.58
459.86	124.84
460.077	124.98
460.294	124.73
460.51	125.04
460.727	125.15
460.943	124.95
461.16	125.16
461.376	124.75
461.593	124.89
461.809	124.85
462.026	124.93
462.242	124.98
462.459	124.75
462.675	124.16
462.892	124.31
463.108	124.85
463.324	124.89
463.541	124.85
463.757	125.25
463.974	125.24
464.19	125.85
464.406	126.04
