Data from test1_MAYP1115451__85__10-17-38-191.txt Node

Date: Wed Jun 12 10:17:38 MDT 2024
User: Modes Lab
Spectrometer: MAYP111545
Trigger mode: 0
Integration Time (sec): 8.000000E-3
Scans to average: 5
Electric dark correction enabled: true
Nonlinearity correction enabled: false
Boxcar width: 5
XAxis mode: Wavelengths
Number of Pixels in Spectrum: 2068
>>>>>Begin Spectral Data<<<<<
165.214	162.87
165.449	162.45
165.683	173.03
165.918	181.22
166.152	187.05
166.387	191.77
166.621	123.95
166.856	162.21
167.09	181.02
167.325	204.66
167.559	222.01
167.794	236.53
168.028	244.75
168.263	245.01
168.497	245.22
168.732	246.64
168.966	248.62
169.2	249.37
169.435	250.79
169.669	252.3
169.903	253.33
170.138	255.13
170.372	256.81
170.606	257.97
170.841	258.9
171.075	260.21
171.309	260.7
171.544	261.19
171.778	263.06
172.012	264.42
172.246	265.02
172.48	267.08
172.715	268.22
172.949	270.82
173.183	272.62
173.417	274.12
173.651	275.64
173.885	277.9
174.119	279.46
174.354	279.32
174.588	279.99
174.822	281.13
175.056	281.64
175.29	280.59
175.524	279.21
175.758	278.48
175.992	278.95
176.226	279.39
176.46	280.01
176.694	280.55
176.928	282.17
177.162	282.86
177.396	283.93
177.63	284.9
177.864	286.13
178.097	288.42
178.331	290.84
178.565	291.97
178.799	293.7
179.033	294.21
179.267	294.22
179.5	294.1
179.734	294.79
179.968	296.32
180.202	297.44
180.436	298.44
180.669	299.28
180.903	299.3
181.137	301.04
181.371	300.92
181.604	301.26
181.838	302.97
182.072	305.13
182.305	306.48
182.539	306.1
182.772	306.79
183.006	309.12
183.24	309.13
183.473	312.77
183.707	313.92
183.94	315.39
184.174	316.82
184.408	317.84
184.641	318.92
184.875	320.17
185.108	321.5
185.342	322.5
185.575	322.08
185.808	324.17
186.042	323.5
186.275	323.44
186.509	324.55
186.742	326.57
186.976	326.52
187.209	328.35
187.442	329.72
187.676	331.93
187.909	332.77
188.142	334.57
188.376	335.93
188.609	337.66
188.842	339.28
189.076	341.04
189.309	341.17
189.542	344.75
189.775	344.42
190.009	345.93
190.242	347.08
190.475	349.04
190.708	351.32
190.941	352.77
191.174	354.37
191.408	356.01
191.641	358.19
191.874	360.17
192.107	361.99
192.34	364.92
192.573	366.99
192.806	369.17
193.039	370.59
193.272	372.13
193.505	373.15
193.738	374.46
193.971	377.62
194.204	378.79
194.437	381.48
194.67	382.44
194.903	384.33
195.136	386.92
195.369	388.61
195.602	391.21
195.835	392.7
196.068	395.1
196.301	397.15
196.533	398.55
196.766	400.52
196.999	403.62
197.232	406.44
197.465	407.82
197.698	408.7
197.93	410.19
198.163	412.44
198.396	415.81
198.629	418.19
198.861	419.82
199.094	421.73
199.327	423.99
199.559	424.17
199.792	425.9
200.025	428.42
200.257	431.1
200.49	432.97
200.723	435.3
200.955	436.86
201.188	438.52
201.42	440.88
201.653	442.28
201.886	444.53
202.118	447.64
202.351	450.01
202.583	452.32
202.816	454.41
203.048	458.35
203.281	459.04
203.513	461.37
203.745	464.26
203.978	467.72
204.21	470.37
204.443	472.35
204.675	473.55
204.907	475.53
205.14	477.61
205.372	479.3
205.605	480.97
205.837	484.39
206.069	485.68
206.302	487.19
206.534	487.64
206.766	490.3
206.998	493.12
207.231	496.12
207.463	497.97
207.695	500.53
207.927	503.39
208.159	504.92
208.392	506.44
208.624	509.15
208.856	511.37
209.088	513.41
209.32	514.92
209.552	515.79
209.784	518.3
210.017	520.24
210.249	521.55
210.481	522.79
210.713	525.01
210.945	526.93
211.177	529.01
211.409	530.79
211.641	533.64
211.873	535.9
212.105	539.15
212.337	541.66
212.569	543.37
212.801	546.41
213.033	549.1
213.264	551.1
213.496	552.9
213.728	554.68
213.96	556.77
214.192	557.48
214.424	559.48
214.656	562.1
214.887	563.33
215.119	566.28
215.351	567.97
215.583	569.97
215.815	571.57
216.046	573.62
216.278	574.5
216.51	575.61
216.741	577.99
216.973	579.17
217.205	578.55
217.436	578.64
217.668	580.84
217.9	582.3
218.131	582.81
218.363	584.06
218.595	584.01
218.826	586.32
219.058	588.55
219.289	588.92
219.521	590.01
219.752	591.77
219.984	592.93
220.215	592.62
220.447	592.75
220.678	593.21
220.91	594.33
221.141	596.5
221.373	596.68
221.604	597.35
221.836	599.39
222.067	601.57
222.298	602.44
222.53	603.19
222.761	603.52
222.993	603.72
223.224	606.08
223.455	608.06
223.686	608.73
223.918	609.68
224.149	610.26
224.38	610.73
224.612	609.57
224.843	610.88
225.074	612.17
225.305	614.12
225.536	615.61
225.768	615.3
225.999	615.17
226.23	617.28
226.461	617.53
226.692	617.48
226.923	617.19
227.155	621.55
227.386	622.04
227.617	622.02
227.848	622.17
228.079	624.1
228.31	625.95
228.541	625.84
228.772	625.1
229.003	626.62
229.234	627.82
229.465	629.21
229.696	625.41
229.927	624.53
230.158	625.81
230.389	624.84
230.62	623.88
230.85	623.12
231.081	622.02
231.312	621.88
231.543	622.32
231.774	621.59
232.005	622.42
232.236	622.99
232.466	623.21
232.697	622.72
232.928	623.95
233.159	622.77
233.389	622.72
233.62	623.01
233.851	622.48
234.082	620.66
234.312	621.79
234.543	619.99
234.774	619.52
235.004	618.88
235.235	619.81
235.466	619.75
235.696	619.53
235.927	619.28
236.157	618.9
236.388	618.73
236.618	619.37
236.849	618.35
237.08	619.73
237.31	621.08
237.541	620.62
237.771	619.68
238.002	617.84
238.232	618.52
238.463	618.21
238.693	618.97
238.923	619.9
239.154	618.72
239.384	618.66
239.615	616.66
239.845	615.7
240.075	616.77
240.306	616.48
240.536	616.77
240.766	616.93
240.997	617.17
241.227	616.79
241.457	615.73
241.687	616.64
241.918	616.5
242.148	617.77
242.378	616.92
242.608	615.92
242.839	614.75
243.069	614.92
243.299	613.53
243.529	613.59
243.759	614.13
243.989	613.01
244.22	612.55
244.45	612.19
244.68	610.28
244.91	609.44
245.14	607.95
245.37	607.73
245.6	605.82
245.83	606.12
246.06	604.12
246.29	602.92
246.52	603.32
246.75	601.79
246.98	600.44
247.21	600.15
247.44	600.48
247.67	601.59
247.9	601.9
248.13	602.01
248.359	601.5
248.589	599.92
248.819	598.95
249.049	597.95
249.279	598.06
249.509	597.64
249.738	598.13
249.968	597.37
250.198	595.5
250.428	594.53
250.657	593.93
250.887	593.15
251.117	593.53
251.347	592.72
251.576	592.13
251.806	591.12
252.036	590.59
252.265	589.28
252.495	588.57
252.725	589.42
252.954	588.7
253.184	588.33
253.413	588.01
253.643	587.86
253.873	588.35
254.102	588.42
254.332	587.06
254.561	586.08
254.791	587.02
255.02	586.24
255.25	585.3
255.479	584.46
255.708	583.92
255.938	582.62
256.167	581.97
256.397	580.68
256.626	578.84
256.856	579.73
257.085	580.1
257.314	577.32
257.544	576.81
257.773	576.72
258.002	575.99
258.232	575.64
258.461	576.19
258.69	575.53
258.919	575.02
259.149	574.35
259.378	574.24
259.607	573.24
259.836	573.13
260.065	573.02
260.295	571.24
260.524	570.7
260.753	570.5
260.982	568.99
261.211	568.12
261.44	567.72
261.669	567.35
261.899	566.86
262.128	564.84
262.357	563.95
262.586	563.55
262.815	563.01
263.044	561.84
263.273	563.01
263.502	562.24
263.731	561.44
263.96	559.12
264.189	558.5
264.418	556.13
264.646	556.33
264.875	554.66
265.104	553.88
265.333	553.35
265.562	552.57
265.791	548.44
266.02	547.33
266.249	546.13
266.477	544.86
266.706	543.44
266.935	542.72
267.164	541.7
267.393	541.61
267.621	540.13
267.85	538.35
268.079	538.95
268.307	539.53
268.536	539.66
268.765	538.9
268.993	539.88
269.222	540.08
269.451	540.42
269.679	540.9
269.908	541.3
270.137	540.92
270.365	541.46
270.594	541.77
270.822	541.53
271.051	541.41
271.279	542.24
271.508	542.04
271.736	542.81
271.965	541.79
272.193	541.13
272.422	540.95
272.65	541.13
272.879	541.3
273.107	540.82
273.336	539.75
273.564	537.7
273.792	536.82
274.021	536.59
274.249	534.32
274.477	533.39
274.706	532.26
274.934	529.82
275.162	528.37
275.391	527.02
275.619	524.7
275.847	524.26
276.075	524.3
276.304	523.88
276.532	523.04
276.76	522.41
276.988	522.42
277.216	521.28
277.445	522.24
277.673	521.08
277.901	520.33
278.129	520.02
278.357	519.97
278.585	519.33
278.813	517.77
279.041	515.46
279.269	514.59
279.497	513.86
279.725	513.93
279.954	512.7
280.182	513.02
280.41	512.93
280.637	510.77
280.865	509.26
281.093	508.79
281.321	509.48
281.549	509.35
281.777	509.68
282.005	509.37
282.233	508.93
282.461	509.21
282.689	508.35
282.916	508.06
283.144	509.04
283.372	508.21
283.6	508.77
283.828	506.24
284.055	506.66
284.283	506.33
284.511	506.35
284.739	506.62
284.966	505.59
285.194	505.73
285.422	504.84
285.649	503.44
285.877	503.46
286.105	502.24
286.332	502.93
286.56	502.32
286.788	501.99
287.015	500.93
287.243	499.75
287.47	499.13
287.698	497.88
287.925	497.55
288.153	497.77
288.381	496.33
288.608	495.3
288.836	496.28
289.063	496.01
289.29	495.22
289.518	494.64
289.745	494.3
289.973	493.19
290.2	492.19
290.428	491.04
290.655	489.82
290.882	489.79
291.11	488.97
291.337	487.68
291.564	486.95
291.792	486.9
292.019	486.19
292.246	485.33
292.473	485.64
292.701	486.04
292.928	484.13
293.155	484.22
293.382	483.61
293.61	482.72
293.837	481.01
294.064	479.82
294.291	477.93
294.518	477.5
294.745	477.28
294.972	476.92
295.2	476.13
295.427	477.66
295.654	477.1
295.881	477.39
296.108	476.75
296.335	477.04
296.562	477.01
296.789	477.13
297.016	476.72
297.243	476.04
297.47	475.06
297.697	474.82
297.924	473.84
298.151	472.64
298.378	471.42
298.604	470.99
298.831	470.12
299.058	470.57
299.285	469.7
299.512	469.1
299.739	467.77
299.966	466.97
300.192	465.35
300.419	465.75
300.646	466.02
300.873	465.55
301.099	465.53
301.326	464.42
301.553	464.15
301.78	465.68
302.006	464.92
302.233	465.95
302.46	465.39
302.686	465.93
302.913	464.37
303.14	464.82
303.366	465.39
303.593	465.46
303.819	465.95
304.046	464.84
304.272	462.75
304.499	462.72
304.725	461.77
304.952	460.99
305.179	460.13
305.405	459.7
305.631	458.77
305.858	458.19
306.084	457.55
306.311	458.15
306.537	457.73
306.764	458.44
306.99	458.57
307.216	458.15
307.443	458.84
307.669	460.28
307.895	460.06
308.122	458.97
308.348	458.35
308.574	457.01
308.801	456.68
309.027	456.52
309.253	455.5
309.479	454.48
309.706	453.9
309.932	452.99
310.158	450.66
310.384	450.93
310.61	451.97
310.837	451.1
311.063	452.15
311.289	450.42
311.515	450.37
311.741	450.19
311.967	450.64
312.193	451.3
312.419	451.99
312.645	452.19
312.871	452.22
313.097	451.55
313.323	453.06
313.549	453.33
313.775	454.1
314.001	453.77
314.227	453.68
314.453	454.28
314.679	454.15
314.905	453.35
315.131	453.48
315.357	454.46
315.583	454.92
315.809	454.66
316.034	454.48
316.26	455.06
316.486	455.35
316.712	456.9
316.938	456.44
317.163	457.39
317.389	458.08
317.615	458.93
317.841	458.57
318.066	458.99
318.292	459.39
318.518	460.24
318.743	460.73
318.969	461.92
319.195	461.92
319.42	461.48
319.646	461.24
319.872	462.3
320.097	462.84
320.323	463.48
320.548	464.84
320.774	465.61
320.999	466.26
321.225	466.62
321.45	467.86
321.676	469.37
321.901	471.37
322.127	472.52
322.352	473.72
322.578	476.59
322.803	478.62
323.029	479.24
323.254	481.21
323.479	482.24
323.705	484.24
323.93	485.88
324.155	488.64
324.381	490.3
324.606	493.48
324.831	496.61
325.057	498.17
325.282	500.42
325.507	502.26
325.732	503.61
325.958	507.32
326.183	508.95
326.408	510.82
326.633	512.93
326.858	515.64
327.084	516.55
327.309	517.15
327.534	519.57
327.759	522.79
327.984	526.84
328.209	529.88
328.434	531.95
328.659	535.88
328.884	540.1
329.109	542.88
329.334	547.3
329.559	551.33
329.784	554.92
330.009	557.62
330.234	560.1
330.459	562.86
330.684	565.97
330.909	569.61
331.134	573.93
331.359	575.93
331.584	579.64
331.809	582.81
332.034	587.26
332.259	591.5
332.483	595.5
332.708	599.92
332.933	604.99
333.158	609.9
333.383	614.93
333.607	618.37
333.832	623.06
334.057	627.22
334.282	632.33
334.506	637.88
334.731	642.93
334.956	648.82
335.18	654.93
335.405	659.92
335.63	666.61
335.854	671.61
336.079	678.61
336.303	686.35
336.528	691.46
336.753	696.46
336.977	701.61
337.202	709.33
337.426	715.3
337.651	720.5
337.875	726.5
338.1	733.1
338.324	740.37
338.549	747.26
338.773	753.48
338.997	762.68
339.222	770.84
339.446	778.04
339.671	784.93
339.895	792.72
340.119	800.32
340.344	809.24
340.568	815.52
340.792	824.1
341.017	830.52
341.241	837.33
341.465	843.59
341.689	851.44
341.914	859.21
342.138	865.41
342.362	873.84
342.586	881.66
342.811	889.86
343.035	899.13
343.259	906.72
343.483	915.12
343.707	924.35
343.931	935.04
344.155	943.13
344.38	953.19
344.604	964.64
344.828	973.06
345.052	982.7
345.276	991.52
345.5	1000.28
345.724	1010.41
345.948	1020.75
346.172	1030.68
346.396	1041.15
346.62	1053.19
346.844	1061.7
347.068	1071.44
347.292	1082.73
347.515	1093.84
347.739	1106.06
347.963	1115.32
348.187	1124.52
348.411	1132.53
348.635	1142.1
348.859	1150.21
349.082	1159.53
349.306	1170.79
349.53	1181.99
349.754	1190.92
349.977	1201.99
350.201	1209.86
350.425	1219.86
350.649	1231.19
350.872	1245.33
351.096	1256.68
351.32	1269.93
351.543	1280.3
351.767	1291.32
351.99	1301.79
352.214	1314.24
352.438	1323.88
352.661	1335.86
352.885	1349.9
353.108	1361.86
353.332	1372.13
353.555	1383.72
353.779	1392.32
354.002	1406.08
354.226	1418.13
354.449	1429.84
354.673	1442.79
354.896	1455.73
355.12	1466.82
355.343	1476.82
355.566	1488.13
355.79	1501.01
356.013	1513.61
356.237	1526.06
356.46	1538.35
356.683	1550.84
356.907	1562.13
357.13	1573.17
357.353	1584.13
357.576	1599.08
357.8	1613.04
358.023	1625.53
358.246	1636.59
358.469	1650.32
358.693	1664.44
358.916	1676.88
359.139	1689.35
359.362	1701.57
359.585	1714.81
359.808	1730.08
360.031	1742.52
360.255	1754.84
360.478	1769.53
360.701	1784.57
360.924	1797.13
361.147	1809.82
361.37	1820.52
361.593	1832.97
361.816	1847.86
362.039	1861.22
362.262	1873.9
362.485	1887.01
362.708	1902.33
362.931	1913.04
363.154	1926.12
363.377	1940.62
363.599	1956.26
363.822	1971.82
364.045	1986.35
364.268	1999.86
364.491	2014.06
364.714	2028.22
364.936	2041.7
365.159	2055.61
365.382	2074.44
365.605	2088.81
365.828	2105.26
366.05	2115.9
366.273	2130.44
366.496	2147.02
366.718	2163.06
366.941	2178.41
367.164	2193.37
367.386	2210.53
367.609	2225.35
367.832	2237.39
368.054	2252.26
368.277	2266.17
368.5	2284.35
368.722	2299.7
368.945	2314.1
369.167	2329.97
369.39	2346.17
369.612	2361.12
369.835	2378.44
370.057	2395.73
370.28	2415.92
370.502	2434.26
370.725	2450.15
370.947	2466.97
371.169	2483.04
371.392	2501.13
371.614	2520.06
371.837	2537.37
372.059	2553.01
372.281	2567.73
372.504	2585.86
372.726	2600.55
372.948	2617.42
373.171	2636.02
373.393	2653.13
373.615	2671.02
373.837	2691.33
374.06	2705.72
374.282	2724.35
374.504	2744.92
374.726	2764.24
374.948	2780.48
375.17	2799.22
375.393	2819.3
375.615	2836.59
375.837	2855.84
376.059	2874.77
376.281	2890.02
376.503	2910.24
376.725	2926.1
376.947	2944.66
377.169	2964.19
377.391	2982.75
377.613	3003.41
377.835	3022.5
378.057	3043.22
378.279	3062.88
378.501	3085.02
378.723	3110.17
378.945	3132.32
379.167	3155.75
379.389	3177.12
379.611	3197.77
379.833	3219.15
380.054	3243.08
380.276	3265.72
380.498	3288.99
380.72	3316.99
380.942	3340.41
381.163	3362.15
381.385	3387.79
381.607	3412.46
381.829	3437.92
382.05	3462.75
382.272	3492.53
382.494	3516.92
382.716	3542.81
382.937	3566.28
383.159	3589.08
383.381	3614.88
383.602	3639.62
383.824	3663.66
384.045	3691.12
384.267	3719.86
384.488	3745.37
384.71	3769.26
384.932	3795.66
385.153	3820.7
385.375	3847.92
385.596	3873.81
385.818	3898.95
386.039	3925.73
386.261	3951.13
386.482	3976.39
386.703	4002.59
386.925	4029.92
387.146	4057.06
387.368	4083.62
387.589	4113.92
387.81	4142.84
388.032	4170.53
388.253	4201.32
388.474	4229.22
388.696	4258.73
388.917	4288.68
389.138	4316.92
389.359	4351.39
389.581	4380.95
389.802	4410.97
390.023	4437.88
390.244	4466.17
390.465	4494.57
390.687	4522.61
390.908	4554.59
391.129	4587.73
391.35	4618.79
391.571	4650.64
391.792	4676.7
392.013	4711.33
392.234	4741.13
392.455	4772.72
392.677	4804.24
392.898	4837.68
393.119	4867.7
393.34	4897.3
393.561	4927.9
393.782	4957.3
394.003	4986.82
394.223	5019.48
394.444	5050.42
394.665	5082.48
394.886	5116.33
395.107	5150.55
395.328	5182.46
395.549	5216.52
395.77	5250.53
395.99	5284.95
396.211	5318.46
396.432	5355.15
396.653	5387.7
396.874	5418.46
397.094	5451.22
397.315	5483.24
397.536	5514.82
397.757	5550.81
397.977	5587.46
398.198	5620.28
398.419	5652.57
398.639	5687.35
398.86	5718.21
399.081	5753.5
399.301	5788.33
399.522	5822.77
399.742	5855.84
399.963	5891.3
400.184	5925.75
400.404	5958.28
400.625	5995.15
400.845	6027.62
401.066	6061.21
401.286	6096.68
401.507	6130.28
401.727	6165.33
401.948	6201.02
402.168	6236.7
402.388	6271.41
402.609	6303.84
402.829	6336.32
403.05	6368.64
403.27	6405.55
403.49	6441.97
403.711	6476.99
403.931	6511.5
404.151	6542.52
404.372	6575.28
404.592	6608.79
404.812	6638.22
405.032	6672.46
405.253	6705.9
405.473	6739.68
405.693	6772.13
405.913	6805.55
406.133	6836.79
406.353	6872.75
406.574	6908.61
406.794	6946.17
407.014	6982.37
407.234	7021.88
407.454	7057.88
407.674	7097.66
407.894	7133.44
408.114	7166.08
408.334	7200.53
408.554	7237.48
408.774	7274.12
408.994	7313.44
409.214	7349.02
409.434	7384.01
409.654	7423.33
409.874	7460.61
410.094	7499.53
410.314	7537.66
410.534	7580.9
410.754	7619.21
410.974	7658.19
411.193	7698.12
411.413	7736.37
411.633	7773.7
411.853	7813.64
412.073	7850.59
412.292	7885.37
412.512	7921.86
412.732	7958.7
412.952	7997.84
413.171	8042.57
413.391	8084.5
413.611	8123.86
413.831	8168.62
414.05	8216.1
414.27	8259.32
414.489	8299.55
414.709	8345.1
414.929	8389.55
415.148	8437.32
415.368	8479.93
415.587	8520.62
415.807	8560.22
416.026	8599.24
416.246	8637.7
416.465	8675.57
416.685	8717.7
416.904	8766.59
417.124	8809.84
417.343	8850.9
417.563	8891.7
417.782	8935.88
418.002	8980.06
418.221	9026.97
418.44	9074.64
418.66	9121.88
418.879	9168.82
419.098	9212.61
419.318	9252.66
419.537	9292.62
419.756	9336.22
419.976	9379.32
420.195	9422.68
420.414	9464.01
420.633	9507.84
420.853	9548.52
421.072	9589.42
421.291	9630.61
421.51	9671.84
421.729	9718.1
421.948	9771.52
422.168	9814.66
422.387	9859.39
422.606	9905.26
422.825	9949.92
423.044	9991.33
423.263	10035.19
423.482	10080.22
423.701	10123.53
423.92	10173.15
424.139	10213.48
424.358	10256.75
424.577	10303.44
424.796	10349.72
425.015	10394.24
425.234	10439.12
425.453	10491.55
425.672	10537.82
425.891	10586.48
426.11	10635.32
426.328	10676.73
426.547	10725.82
426.766	10767.97
426.985	10812.44
427.204	10860.33
427.422	10907.33
427.641	10956.15
427.86	11003.79
428.079	11055.52
428.297	11098.62
428.516	11142.57
428.735	11198.97
428.954	11247.62
429.172	11294.15
429.391	11344.59
429.61	11393.53
429.828	11441.44
430.047	11486.5
430.265	11527.93
430.484	11570.53
430.703	11620.04
430.921	11666.57
431.14	11704.68
431.358	11747.68
431.577	11796.33
431.795	11841.72
432.014	11888.15
432.232	11933.01
432.451	11981.1
432.669	12031.12
432.887	12081.99
433.106	12127.17
433.324	12181.41
433.543	12232.39
433.761	12283.02
433.979	12334.22
434.198	12381.99
434.416	12429.79
434.634	12478.73
434.853	12527.08
435.071	12570.92
435.289	12617.84
435.507	12667.52
435.726	12714.1
435.944	12763.19
436.162	12807.72
436.38	12855.35
436.598	12908.37
436.817	12949.46
437.035	12997.57
437.253	13046.17
437.471	13098.21
437.689	13145.75
437.907	13192.12
438.125	13237.28
438.343	13285.68
438.561	13338.61
438.78	13385.13
438.998	13425.24
439.216	13474.35
439.434	13516.3
439.652	13565.15
439.869	13612.42
440.087	13657.37
440.305	13706.92
440.523	13751.3
440.741	13794.06
440.959	13838.75
441.177	13885.35
441.395	13931.97
441.613	13979.97
441.831	14027.77
442.048	14067.33
442.266	14112.64
442.484	14163.22
442.702	14211.02
442.919	14261.62
443.137	14315.12
443.355	14364.64
443.573	14407.35
443.79	14459.77
444.008	14509.26
444.226	14565.39
444.443	14617.26
444.661	14662.44
444.879	14714.35
445.096	14756.66
445.314	14806.42
445.532	14853.77
445.749	14900.64
445.967	14952.42
446.184	15002.39
446.402	15050.06
446.619	15092.35
446.837	15137.37
447.054	15189.22
447.272	15227.68
447.489	15273.73
447.707	15313.06
447.924	15353.5
448.141	15406.42
448.359	15455.95
448.576	15499.59
448.794	15548.02
449.011	15595.35
449.228	15645.06
449.446	15688.95
449.663	15742.93
449.88	15793.39
450.098	15848.37
450.315	15901.5
450.532	15947.66
450.749	15996.17
450.967	16045.59
451.184	16096.33
451.401	16150.37
451.618	16197.3
451.835	16254.3
452.052	16297.57
452.27	16351.24
452.487	16395.59
452.704	16444.13
452.921	16487.17
453.138	16531.39
453.355	16579.99
453.572	16630.62
453.789	16673.99
454.006	16723.81
454.223	16772.72
454.44	16831.61
454.657	16876.02
