Data from test1_MAYP1115451__29__10-17-18-885.txt Node

Date: Wed Jun 12 10:17:18 MDT 2024
User: Modes Lab
Spectrometer: MAYP111545
Trigger mode: 0
Integration Time (sec): 8.000000E-3
Scans to average: 5
Electric dark correction enabled: true
Nonlinearity correction enabled: false
Boxcar width: 5
XAxis mode: Wavelengths
Number of Pixels in Spectrum: 2068
>>>>>Begin Spectral Data<<<<<
165.214	164.1
165.449	164.66
165.683	173.68
165.918	182.01
166.152	188.13
166.387	193.85
166.621	125.76
166.856	163.89
167.09	182.6
167.325	206.62
167.559	222.96
167.794	237.09
168.028	244.54
168.263	245.72
168.497	246.69
168.732	248.23
168.966	247.65
169.2	249
169.435	249.98
169.669	251.54
169.903	252.72
170.138	253.98
170.372	254.94
170.606	256.8
170.841	258.83
171.075	259.83
171.309	260.63
171.544	262.89
171.778	265.12
172.012	267.36
172.246	269.12
172.48	270.27
172.715	272.36
172.949	275.05
173.183	276.4
173.417	277.83
173.651	279.07
173.885	281.03
174.119	281.09
174.354	282.14
174.588	282.25
174.822	282.92
175.056	283.34
175.29	284.02
175.524	283.52
175.758	284.12
175.992	283.96
176.226	284.16
176.46	283.96
176.694	285.69
176.928	285.74
177.162	286.42
177.396	286.94
177.63	288.05
177.864	288.51
178.097	289.12
178.331	289.25
178.565	290.36
178.799	291.89
179.033	292.34
179.267	293.36
179.5	294.45
179.734	295.27
179.968	296.42
180.202	297.18
180.436	298.71
180.669	299.25
180.903	300.65
181.137	301.63
181.371	302.11
181.604	303.22
181.838	303.56
182.072	304.25
182.305	305.65
182.539	306.18
182.772	307.18
183.006	307.82
183.24	309
183.473	311.16
183.707	311.98
183.94	313.05
184.174	313.94
184.408	315.02
184.641	315.94
184.875	316.85
185.108	318.11
185.342	319.03
185.575	320.8
185.808	322.56
186.042	322.32
186.275	323.49
186.509	324.65
186.742	326.6
186.976	328.49
187.209	329.89
187.442	331.47
187.676	331.92
187.909	333.51
188.142	333.56
188.376	334.38
188.609	336.4
188.842	337.74
189.076	340
189.309	341.65
189.542	342.67
189.775	344.87
190.009	346.83
190.242	350.03
190.475	352.89
190.708	356.12
190.941	358.87
191.174	360.02
191.408	360.43
191.641	360.69
191.874	362.62
192.107	365.65
192.34	366.4
192.573	368.49
192.806	369.32
193.039	370.12
193.272	371.34
193.505	372.07
193.738	373.38
193.971	376.8
194.204	379.65
194.437	380.87
194.67	381.6
194.903	384.03
195.136	384.98
195.369	387.71
195.602	388.8
195.835	390.6
196.068	393.42
196.301	396.23
196.533	399.42
196.766	400.87
196.999	402.83
197.232	404.67
197.465	405.38
197.698	407.29
197.93	408.72
198.163	411.91
198.396	414.42
198.629	416.14
198.861	417.52
199.094	417
199.327	420.29
199.559	422.43
199.792	424.58
200.025	427.51
200.257	431.31
200.49	434.02
200.723	436.56
200.955	437.45
201.188	440.34
201.42	443.42
201.653	447.03
201.886	449.16
202.118	452.45
202.351	455.2
202.583	458.98
202.816	459.58
203.048	462.12
203.281	463.72
203.513	466.65
203.745	468.63
203.978	470.23
204.21	471.22
204.443	473
204.675	473.74
204.907	474.36
205.14	475.94
205.372	479.18
205.605	480.71
205.837	482.52
206.069	484.31
206.302	486.18
206.534	487.82
206.766	490.89
206.998	492.51
207.231	495.52
207.463	499.82
207.695	502.34
207.927	504.07
208.159	505.47
208.392	508.03
208.624	510.65
208.856	511.6
209.088	514
209.32	515.74
209.552	517.98
209.784	520.47
210.017	522.8
210.249	525.05
210.481	527.71
210.713	529.36
210.945	531.18
211.177	533.23
211.409	536.87
211.641	538.94
211.873	541.82
212.105	542.91
212.337	543.58
212.569	544.72
212.801	545.22
213.033	547.11
213.264	549.62
213.496	550.94
213.728	553.76
213.96	553.94
214.192	556.09
214.424	556.42
214.656	558.09
214.887	561.82
215.119	564.71
215.351	566.51
215.583	566.62
215.815	569.34
216.046	571.76
216.278	571.74
216.51	574
216.741	575.43
216.973	578.67
217.205	580.62
217.436	580.91
217.668	581.58
217.9	583.03
218.131	585.56
218.363	587.54
218.595	589.38
218.826	591.4
219.058	593.23
219.289	595.14
219.521	595.14
219.752	596.4
219.984	597.89
220.215	598.22
220.447	598.72
220.678	599.74
220.91	599.6
221.141	599.52
221.373	600.62
221.604	601
221.836	600.71
222.067	602.29
222.298	603.8
222.53	604.58
222.761	606.67
222.993	608.87
223.224	610.94
223.455	611.52
223.686	612.43
223.918	612.31
224.149	614.02
224.38	615.67
224.612	616
224.843	616.69
225.074	617.36
225.305	617.67
225.536	617.29
225.768	617.29
225.999	617.67
226.23	618.42
226.461	619.6
226.692	618.91
226.923	619.71
227.155	621.6
227.386	622.09
227.617	622.03
227.848	622.23
228.079	624.94
228.31	625.43
228.541	626.18
228.772	627.58
229.003	628.82
229.234	630.85
229.465	630.12
229.696	629.11
229.927	628.83
230.158	628.27
230.389	627.34
230.62	625.83
230.85	625.52
231.081	624.02
231.312	621.67
231.543	621.12
231.774	620.69
232.005	621.54
232.236	622.2
232.466	622.03
232.697	622.94
232.928	623.23
233.159	623.49
233.389	623.05
233.62	623.71
233.851	625.54
234.082	625
234.312	623.92
234.543	622.89
234.774	621.47
235.004	622.29
235.235	621.87
235.466	622.8
235.696	623.14
235.927	623.31
236.157	623.82
236.388	623.18
236.618	622.47
236.849	622.72
237.08	622.62
237.31	623.02
237.541	622.74
237.771	621.51
238.002	621.49
238.232	619.58
238.463	618.4
238.693	618.42
238.923	617.4
239.154	617.51
239.384	617.02
239.615	616.89
239.845	616.22
240.075	615.25
240.306	615.2
240.536	614.6
240.766	614.43
240.997	614.78
241.227	613.31
241.457	612.89
241.687	612.67
241.918	612.34
242.148	613.18
242.378	613.49
242.608	611.85
242.839	612.78
243.069	612.18
243.299	612.32
243.529	613.45
243.759	613.91
243.989	613.29
244.22	612.63
244.45	611.92
244.68	611.58
244.91	611.47
245.14	612.87
245.37	610.63
245.6	610.09
245.83	609.65
246.06	608.18
246.29	607.2
246.52	607.29
246.75	605.89
246.98	606.38
247.21	604.6
247.44	602.27
247.67	599.98
247.9	600.14
248.13	599.02
248.359	598.31
248.589	596.4
248.819	596.16
249.049	594.31
249.279	595.91
249.509	595.14
249.738	594.38
249.968	594.62
250.198	595.96
250.428	596.16
250.657	594.98
250.887	594.89
251.117	596.02
251.347	595.65
251.576	596.8
251.806	595.72
252.036	594.07
252.265	593.36
252.495	593.67
252.725	592.16
252.954	591.16
253.184	591.54
253.413	590.82
253.643	588.85
253.873	587.54
254.102	587.51
254.332	586.14
254.561	585.98
254.791	584.83
255.02	583.94
255.25	582.89
255.479	582.65
255.708	581.65
255.938	580.76
256.167	580.31
256.397	579.51
256.626	577.82
256.856	576.87
257.085	576.67
257.314	577.31
257.544	576.76
257.773	576.12
258.002	575.02
258.232	573.94
258.461	572.91
258.69	571.87
258.919	571.22
259.149	570.98
259.378	570.94
259.607	569.65
259.836	569.27
260.065	567.91
260.295	566.72
260.524	566.23
260.753	566.98
260.982	566.4
261.211	566.58
261.44	566.52
261.669	566.23
261.899	565.23
262.128	564.65
262.357	562.58
262.586	562.62
262.815	562.76
263.044	562.34
263.273	562.58
263.502	562.4
263.731	560.25
263.96	559.2
264.189	557.94
264.418	556.74
264.646	555.92
264.875	555.23
265.104	554.25
265.333	553.09
265.562	550.67
265.791	548.83
266.02	547.65
266.249	546.63
266.477	545.89
266.706	544.34
266.935	544.03
267.164	543.14
267.393	543
267.621	542.6
267.85	542.71
268.079	544.69
268.307	543.4
268.536	542.05
268.765	543.14
268.993	542.67
269.222	542.23
269.451	542.89
269.679	543.36
269.908	542.89
270.137	543.02
270.365	541.69
270.594	540.58
270.822	540.58
271.051	542.56
271.279	541.65
271.508	542.49
271.736	543.65
271.965	543.45
272.193	543.45
272.422	544.76
272.65	543.58
272.879	543.31
273.107	541.8
273.336	541.42
273.564	540
273.792	538.47
274.021	536.98
274.249	534.27
274.477	532.96
274.706	531.96
274.934	528.85
275.162	527.4
275.391	526.6
275.619	526.45
275.847	525.91
276.075	524.54
276.304	525.07
276.532	523.63
276.76	523.54
276.988	522.14
277.216	520.8
277.445	521.22
277.673	520.8
277.901	521.67
278.129	520.87
278.357	520.12
278.585	520.2
278.813	519.18
279.041	519.09
279.269	518.29
279.497	517.51
279.725	517.05
279.954	515.38
280.182	515.49
280.41	514.31
280.637	513.29
280.865	512.43
281.093	511.03
281.321	511.03
281.549	510.52
281.777	511.85
282.005	511.58
282.233	511.23
282.461	511.43
282.689	509.85
282.916	510.05
283.144	509.67
283.372	508.92
283.6	508.09
283.828	506.47
284.055	506.03
284.283	504.67
284.511	504.05
284.739	504.49
284.966	504.03
285.194	504.56
285.422	502.52
285.649	502.23
285.877	502
286.105	501.51
286.332	502.67
286.56	502.69
286.788	501.12
287.015	500.56
287.243	498.82
287.47	497.98
287.698	496.72
287.925	496.96
288.153	497.65
288.381	497.27
288.608	496.6
288.836	495.45
289.063	494.07
289.29	494
289.518	493.38
289.745	492.16
289.973	491.85
290.2	491.8
290.428	490.45
290.655	488.85
290.882	488.36
291.11	488.45
291.337	486.87
291.564	486.87
291.792	486.29
292.019	485.05
292.246	485.87
292.473	485.71
292.701	484.83
292.928	484.83
293.155	484.58
293.382	483.47
293.61	482.74
293.837	483.16
294.064	481.92
294.291	481.29
294.518	482.03
294.745	480.31
294.972	479.6
295.2	480.18
295.427	480.36
295.654	479.29
295.881	479.52
296.108	479
296.335	478.49
296.562	478.45
296.789	478.12
297.016	478.47
297.243	478.69
297.47	477.62
297.697	476.36
297.924	475.47
298.151	474.69
298.378	474.25
298.604	473.6
298.831	472.76
299.058	472.56
299.285	473.6
299.512	471.51
299.739	471.38
299.966	471.56
300.192	471.56
300.419	471.29
300.646	471.38
300.873	469.4
301.099	469.56
301.326	469.4
301.553	469.14
301.78	468.96
302.006	469.6
302.233	469.09
302.46	468.49
302.686	467.42
302.913	466.32
303.14	465.67
303.366	466.38
303.593	466.56
303.819	465.25
304.046	463.16
304.272	461.83
304.499	461.4
304.725	460.58
304.952	459.85
305.179	459.63
305.405	459.63
305.631	459
305.858	458
306.084	456.03
306.311	457.54
306.537	458.74
306.764	457.65
306.99	456.16
307.216	455.76
307.443	455.71
307.669	454.49
307.895	454.62
308.122	454.54
308.348	454.27
308.574	454.94
308.801	454.94
309.027	454.85
309.253	454.36
309.479	455.23
309.706	454.58
309.932	454.96
310.158	454.69
310.384	453.49
310.61	453.98
310.837	453.36
311.063	452.2
311.289	450.92
311.515	450.2
311.741	450.49
311.967	449.09
312.193	450.42
312.419	450.36
312.645	450.94
312.871	451.49
313.097	451.63
313.323	452.45
313.549	454.09
313.775	454.43
314.001	455.54
314.227	455.52
314.453	456.4
314.679	456.49
314.905	457.22
315.131	457.72
315.357	458.6
315.583	458.03
315.809	457.94
316.034	456.76
316.26	456.6
316.486	456.51
316.712	457.69
316.938	457.82
317.163	457.8
317.389	456.4
317.615	456.63
317.841	456.92
318.066	457.42
318.292	457.92
318.518	459.27
318.743	459.43
318.969	460
319.195	461
319.42	462.8
319.646	463.65
319.872	465.18
320.097	466.29
320.323	465.78
320.548	467.25
320.774	469.2
320.999	469.72
321.225	471.16
321.45	472.6
321.676	473.02
321.901	473.42
322.127	474.63
322.352	475.65
322.578	477.16
322.803	481.14
323.029	482.36
323.254	483.25
323.479	486.89
323.705	487.87
323.93	488.65
324.155	490.56
324.381	493.52
324.606	494.29
324.831	497.74
325.057	498.58
325.282	499.58
325.507	502.2
325.732	504.91
325.958	505.83
326.183	509.87
326.408	514.45
326.633	516.82
326.858	518.51
327.084	522.87
327.309	524.76
327.534	529.43
327.759	532.36
327.984	534.43
328.209	535.85
328.434	539.42
328.659	542
328.884	542.94
329.109	545.29
329.334	547.51
329.559	549.82
329.784	553
330.009	554.87
330.234	557.16
330.459	560.89
330.684	565.8
330.909	568.52
331.134	571.82
331.359	576.45
331.584	581.54
331.809	585.22
332.034	589.09
332.259	592.85
332.483	597.91
332.708	602.49
332.933	607.38
333.158	611.43
333.383	616.51
333.607	621.82
333.832	626.27
334.057	629.45
334.282	635.34
334.506	640.58
334.731	646.32
334.956	652.56
335.18	658.14
335.405	663.32
335.63	669.14
335.854	673.76
336.079	680.51
336.303	686.27
336.528	694.36
336.753	700.12
336.977	706.82
337.202	712.65
337.426	718.25
337.651	724.91
337.875	730.83
338.1	737.14
338.324	744.56
338.549	749.4
338.773	755.82
338.997	762.09
339.222	770.03
339.446	777.25
339.671	783.8
339.895	791.52
340.119	798.07
340.344	806.14
340.568	815.23
340.792	822.85
341.017	830.69
341.241	839.71
341.465	846.47
341.689	854.25
341.914	860.96
342.138	868.42
342.362	876.16
342.586	884.98
342.811	892.76
343.035	898.4
343.259	905.62
343.483	914.76
343.707	923.14
343.931	934.63
344.155	942.92
344.38	953.34
344.604	963.92
344.828	972.71
345.052	981.89
345.276	992.11
345.5	1003
345.724	1014.51
345.948	1024.49
346.172	1033.65
346.396	1041.83
346.62	1052.65
346.844	1062.67
347.068	1072.76
347.292	1081.45
347.515	1090.2
347.739	1101.18
347.963	1110.94
348.187	1121.67
348.411	1131.29
348.635	1141.47
348.859	1151.03
349.082	1160.83
349.306	1169
349.53	1179.31
349.754	1192.4
349.977	1204.58
350.201	1215.6
350.425	1228.02
350.649	1237
350.872	1249.32
351.096	1260.8
351.32	1271.94
351.543	1283.91
351.767	1295.89
351.99	1307.8
352.214	1319
352.438	1330.76
352.661	1341.22
352.885	1351.38
353.108	1362.31
353.332	1372.38
353.555	1384.45
353.779	1395.85
354.002	1407.62
354.226	1420.83
354.449	1432.22
354.673	1443.94
354.896	1455.02
355.12	1466.89
355.343	1478.98
355.566	1492.05
355.79	1504.87
356.013	1514.52
356.237	1527.36
356.46	1539.91
356.683	1552.83
356.907	1564.89
357.13	1576.67
357.353	1588.98
357.576	1600.67
357.8	1614.03
358.023	1626.67
358.246	1640.12
358.469	1655.14
358.693	1667.14
358.916	1679.6
359.139	1692
359.362	1706.27
359.585	1718.07
359.808	1732.18
360.031	1744.85
360.255	1757.83
360.478	1770.38
360.701	1781.54
360.924	1793.67
361.147	1808.05
361.37	1820.82
361.593	1834.67
361.816	1846.67
362.039	1861.51
362.262	1874.89
362.485	1887.18
362.708	1900.29
362.931	1913.38
363.154	1927.74
363.377	1941.49
363.599	1956.54
363.822	1970.69
364.045	1983.98
364.268	1995.76
364.491	2009.42
364.714	2021.91
364.936	2035.83
365.159	2049.98
365.382	2064.25
365.605	2078.09
365.828	2095.32
366.05	2108.34
366.273	2123.16
366.496	2135.45
366.718	2152.85
366.941	2166.83
367.164	2183.52
367.386	2201.6
367.609	2217.12
367.832	2235.02
368.054	2251.62
368.277	2267.07
368.5	2283.18
368.722	2300.29
368.945	2318.6
369.167	2333.67
369.39	2347.71
369.612	2363.76
369.835	2379.62
370.057	2396.36
370.28	2411.07
370.502	2427.25
370.725	2443.58
370.947	2459.18
371.169	2474.49
371.392	2491.47
371.614	2508.56
371.837	2529.18
372.059	2547.36
372.281	2565.52
372.504	2582.71
372.726	2599.43
372.948	2618.38
373.171	2633.74
373.393	2652.58
373.615	2671.83
373.837	2689.45
374.06	2709.67
374.282	2727.91
374.504	2746.65
374.726	2763.72
374.948	2780.67
375.17	2799.62
375.393	2817.34
375.615	2837.34
375.837	2856.49
376.059	2874.6
376.281	2893.05
376.503	2907.63
376.725	2927.09
376.947	2946.32
377.169	2964.42
377.391	2985.52
377.613	3006.22
377.835	3025.2
378.057	3042.63
378.279	3062.47
378.501	3082.31
378.723	3104.98
378.945	3130.45
379.167	3150.62
379.389	3171.14
379.611	3195.52
379.833	3219.12
380.054	3244.38
380.276	3270.02
380.498	3295.31
380.72	3319.69
380.942	3340.56
381.163	3364.49
381.385	3388.85
381.607	3413.43
381.829	3437.92
382.05	3462.18
382.272	3486.14
382.494	3510.38
382.716	3534.8
382.937	3560.49
383.159	3585.29
383.381	3616.54
383.602	3642.51
383.824	3668.52
384.045	3693.6
384.267	3718.23
384.488	3744.56
384.71	3770.92
384.932	3794.23
385.153	3822.02
385.375	3850.42
385.596	3876.47
385.818	3903.56
386.039	3929.02
386.261	3955.47
386.482	3982.23
386.703	4012.6
386.925	4038.58
387.146	4064.12
387.368	4094.45
387.589	4121.65
387.81	4147.02
388.032	4176.11
388.253	4202.05
388.474	4230.56
388.696	4257.49
388.917	4286.31
389.138	4313.83
389.359	4345.92
389.581	4377.16
389.802	4407.65
390.023	4435.71
390.244	4466.94
390.465	4496.65
390.687	4526.62
390.908	4555.2
391.129	4585.8
391.35	4615.27
391.571	4643.09
391.792	4672.56
392.013	4706.18
392.234	4736.47
392.455	4768.52
392.677	4799.09
392.898	4831.43
393.119	4861.34
393.34	4894.78
393.561	4928.51
393.782	4966.78
394.003	5002.42
394.223	5036.07
394.444	5064.82
394.665	5098.89
394.886	5131.71
395.107	5165.27
395.328	5197.45
395.549	5232.05
395.77	5264.54
395.99	5294.62
396.211	5324.56
396.432	5357.87
396.653	5391.94
396.874	5423.85
397.094	5456.25
397.315	5487.91
397.536	5520.43
397.757	5555.98
397.977	5590.18
398.198	5625.71
398.419	5660.74
398.639	5693.18
398.86	5726.6
399.081	5758.38
399.301	5793.74
399.522	5822.07
399.742	5854.43
399.963	5889.72
400.184	5922.07
400.404	5954.16
400.625	5986.54
400.845	6020.56
401.066	6058.54
401.286	6089.2
401.507	6124.27
401.727	6155.8
401.948	6192.07
402.168	6227.22
402.388	6261.4
402.609	6292.51
402.829	6328.62
403.05	6364.25
403.27	6399.92
403.49	6431.4
403.711	6465.09
403.931	6498.92
404.151	6533.54
404.372	6572.52
404.592	6601.27
404.812	6633.09
405.032	6670.27
405.253	6700.29
405.473	6736.22
405.693	6772.23
405.913	6806.2
406.133	6845.05
406.353	6884.89
406.574	6921.03
406.794	6952.27
407.014	6994.4
407.234	7029.76
407.454	7067
407.674	7111
407.894	7145.82
408.114	7179.25
408.334	7213.38
408.554	7250.18
408.774	7282.74
408.994	7320.87
409.214	7358.03
409.434	7394.52
409.654	7431.47
409.874	7469.51
410.094	7503.47
410.314	7538.49
410.534	7575.07
410.754	7615.03
410.974	7654.91
411.193	7689.03
411.413	7726.6
411.633	7769.82
411.853	7807.85
412.073	7844.89
412.292	7878.8
412.512	7916.89
412.732	7956.72
412.952	7997.16
413.171	8038.03
413.391	8074.45
413.611	8118.6
413.831	8161.32
414.05	8196.12
414.27	8239.65
414.489	8282.94
414.709	8325.74
414.929	8370.96
415.148	8410.45
415.368	8453.34
415.587	8495.71
415.807	8542.45
416.026	8587.36
416.246	8628.67
416.465	8675.32
416.685	8718.25
416.904	8766.45
417.124	8809.23
417.343	8847.98
417.563	8900.25
417.782	8944.14
418.002	8994.85
418.221	9037.63
418.44	9079.65
418.66	9123.25
418.879	9166.56
419.098	9209.25
419.318	9250.83
419.537	9299.03
419.756	9344.43
419.976	9384.6
420.195	9429.71
420.414	9467.69
420.633	9504.54
420.853	9544.31
421.072	9594.18
421.291	9635.71
421.51	9678.51
421.729	9722.11
421.948	9767.82
422.168	9813.29
422.387	9855.54
422.606	9898.27
422.825	9938.76
423.044	9993.2
423.263	10039
423.482	10079.98
423.701	10124.16
423.92	10170.2
424.139	10217.29
424.358	10256
424.577	10300.12
424.796	10347.36
425.015	10398.34
425.234	10447.94
425.453	10487.49
425.672	10536.54
425.891	10584.16
426.11	10630.45
426.328	10676.32
426.547	10718.36
426.766	10767.38
426.985	10816.16
427.204	10862.14
427.422	10904
427.641	10944.91
427.86	10995.18
428.079	11036.4
428.297	11076.78
428.516	11133.38
428.735	11184.03
428.954	11237.36
429.172	11282.32
429.391	11328.92
429.61	11373.89
429.828	11420.71
430.047	11472.63
430.265	11515.89
430.484	11568.82
430.703	11619.49
430.921	11658.18
431.14	11701.6
431.358	11747.89
431.577	11795.72
431.795	11843.32
432.014	11894.52
432.232	11944.98
432.451	11994.56
432.669	12044.87
432.887	12093.29
433.106	12142.89
433.324	12192.38
433.543	12239.63
433.761	12286.85
433.979	12336.89
434.198	12384.92
434.416	12435.87
434.634	12479.36
434.853	12526.4
435.071	12575.34
435.289	12625.67
435.507	12669.62
435.726	12715.62
435.944	12764.91
436.162	12811.27
436.38	12856.83
436.598	12899.94
436.817	12933.34
437.035	12984.98
437.253	13034.49
437.471	13080.31
437.689	13123.29
437.907	13175.98
438.125	13226.4
438.343	13274.92
438.561	13325.12
438.78	13372.2
438.998	13425.76
439.216	13483.14
439.434	13525.69
439.652	13571.12
439.869	13616.38
440.087	13661.76
440.305	13706.09
440.523	13755.23
440.741	13796.89
440.959	13840.69
441.177	13896.32
441.395	13939.72
441.613	13986.51
441.831	14033.69
442.048	14079.62
442.266	14129.62
442.484	14177.05
442.702	14226.89
442.919	14272.49
443.137	14325.22
443.355	14373.54
443.573	14419.36
443.79	14466.07
444.008	14516.42
444.226	14568.71
444.443	14618.45
444.661	14666.72
444.879	14714.2
445.096	14758
445.314	14810.14
445.532	14859.27
445.749	14904.96
445.967	14945.89
446.184	14997.69
446.402	15042.62
446.619	15086.87
446.837	15134.65
447.054	15177.52
447.272	15230.4
447.489	15281
447.707	15322.02
447.924	15364.16
448.141	15419.91
448.359	15474.16
448.576	15524.49
448.794	15574.14
449.011	15626.2
449.228	15669.22
449.446	15717.72
449.663	15767.6
449.88	15821.91
450.098	15868.14
450.315	15921.03
450.532	15962.4
450.749	16010.91
450.967	16058.92
451.184	16108.03
451.401	16152.6
451.618	16202.05
451.835	16255.71
452.052	16299.76
452.27	16338.29
452.487	16389.72
452.704	16432.47
452.921	16481.63
453.138	16529.43
453.355	16570.22
453.572	16617.05
453.789	16664.07
454.006	16709.65
454.223	16758.22
454.44	16807.6
454.657	16856.45
454.874	16901.49
455.091	16952.89
455.308	16997.74
455.525	17047.94
