Data from test1_MAYP1115451__20__10-17-16-204.txt Node

Date: Wed Jun 12 10:17:16 MDT 2024
User: Modes Lab
Spectrometer: MAYP111545
Trigger mode: 0
Integration Time (sec): 8.000000E-3
Scans to average: 5
Electric dark correction enabled: true
Nonlinearity correction enabled: false
Boxcar width: 5
XAxis mode: Wavelengths
Number of Pixels in Spectrum: 2068
>>>>>Begin Spectral Data<<<<<
165.214	162.47
165.449	162.04
165.683	171.69
165.918	179.69
166.152	185.31
166.387	190.45
166.621	122.76
166.856	161.41
167.09	179.78
167.325	202.5
167.559	218.34
167.794	233.41
168.028	241.1
168.263	241.36
168.497	241.78
168.732	243.81
168.966	245.25
169.2	246.07
169.435	247.34
169.669	248.98
169.903	251.43
170.138	253.3
170.372	254.38
170.606	256.3
170.841	257.65
171.075	259.3
171.309	260.67
171.544	261.48
171.778	263.94
172.012	265.48
172.246	268.07
172.48	269.68
172.715	271.76
172.949	273.65
173.183	275.68
173.417	278.1
173.651	279.19
173.885	280.01
174.119	281.21
174.354	280.81
174.588	281.99
174.822	281.87
175.056	281.83
175.29	281.68
175.524	281.39
175.758	280.68
175.992	281.21
176.226	281.45
176.46	281.76
176.694	282.85
176.928	284.59
177.162	284.63
177.396	285.05
177.63	286.7
177.864	287.65
178.097	288.72
178.331	290.5
178.565	290.74
178.799	291.61
179.033	291.59
179.267	290.92
179.5	290.48
179.734	291.58
179.968	292.34
180.202	292.32
180.436	294.52
180.669	295.48
180.903	296.23
181.137	297.41
181.371	298.48
181.604	301.27
181.838	302.81
182.072	304.43
182.305	305.07
182.539	306.96
182.772	308.01
183.006	308.21
183.24	308.99
183.473	312.38
183.707	313.07
183.94	314.21
184.174	314.47
184.408	316.23
184.641	317.32
184.875	318.18
185.108	318.94
185.342	321.07
185.575	322.48
185.808	324.39
186.042	322.41
186.275	324.16
186.509	325.21
186.742	327.23
186.976	329.03
187.209	330.36
187.442	332.05
187.676	332.87
187.909	333.28
188.142	334.47
188.376	335.34
188.609	337.7
188.842	339.52
189.076	341.61
189.309	342.34
189.542	343.68
189.775	345.25
190.009	346.47
190.242	347.76
190.475	349.98
190.708	350.96
190.941	352.05
191.174	353.03
191.408	354.52
191.641	356.18
191.874	358.65
192.107	361.05
192.34	362.9
192.573	365.58
192.806	368.23
193.039	370.21
193.272	373.08
193.505	375.63
193.738	378.32
193.971	380.45
194.204	382.05
194.437	383.23
194.67	384.63
194.903	386.85
195.136	387.58
195.369	389.38
195.602	390.79
195.835	391.36
196.068	392.85
196.301	392.94
196.533	395.34
196.766	396.85
196.999	397.94
197.232	399.36
197.465	400.41
197.698	402.68
197.93	405.41
198.163	407.85
198.396	411.65
198.629	414.5
198.861	418.3
199.094	419.07
199.327	421.43
199.559	424.78
199.792	427.25
200.025	430.36
200.257	433.08
200.49	434.12
200.723	436.23
200.955	437.92
201.188	438.96
201.42	440.7
201.653	444.01
201.886	446.58
202.118	448.56
202.351	450.98
202.583	452.81
202.816	454.43
203.048	456.72
203.281	458.18
203.513	459.76
203.745	462.54
203.978	464.36
204.21	465.94
204.443	468.58
204.675	470.78
204.907	472.34
205.14	474.68
205.372	476.78
205.605	479.76
205.837	481.36
206.069	483.68
206.302	485.83
206.534	488.58
206.766	490.3
206.998	491.45
207.231	492.74
207.463	495.87
207.695	498.43
207.927	500.61
208.159	502.05
208.392	504.83
208.624	506.54
208.856	508.85
209.088	511.28
209.32	514.5
209.552	516.45
209.784	519.28
210.017	519.81
210.249	521.79
210.481	523.94
210.713	526.76
210.945	528.87
211.177	531.87
211.409	533.85
211.641	535.03
211.873	536.52
212.105	538.9
212.337	541.07
212.569	543.34
212.801	544.08
213.033	546.68
213.264	548.23
213.496	551.03
213.728	552.45
213.96	555.18
214.192	557.05
214.424	558.36
214.656	559.98
214.887	562.63
215.119	564.34
215.351	568.78
215.583	569.41
215.815	571.43
216.046	572.05
216.278	574.12
216.51	575.38
216.741	576.96
216.973	578.3
217.205	580.18
217.436	580.67
217.668	584.47
217.9	583.92
218.131	586.27
218.363	587.54
218.595	589.94
218.826	591.03
219.058	591.48
219.289	591.76
219.521	593.12
219.752	593.96
219.984	596.32
220.215	595.59
220.447	596.28
220.678	596.76
220.91	596.43
221.141	597.25
221.373	598.88
221.604	601.27
221.836	604.25
222.067	605.92
222.298	608.54
222.53	608.32
222.761	609.34
222.993	609.92
223.224	611.47
223.455	613.32
223.686	614.63
223.918	614.88
224.149	612.94
224.38	611.88
224.612	612.27
224.843	611.27
225.074	611.96
225.305	612.67
225.536	614.58
225.768	615.3
225.999	615.85
226.23	615.19
226.461	614.88
226.692	617.36
226.923	620.18
227.155	622.72
227.386	623.36
227.617	623.76
227.848	623.23
228.079	625.19
228.31	625.54
228.541	626.52
228.772	627.58
229.003	627.34
229.234	626.9
229.465	625.81
229.696	622.96
229.927	622.05
230.158	621.87
230.389	622.3
230.62	620.96
230.85	619.85
231.081	620.32
231.312	620.28
231.543	620.9
231.774	621.05
232.005	620.25
232.236	620.76
232.466	622.38
232.697	623.32
232.928	623.72
233.159	622.56
233.389	623.56
233.62	622.3
233.851	621.48
234.082	622.56
234.312	622.65
234.543	622.67
234.774	622.16
235.004	622.12
235.235	621.67
235.466	621.47
235.696	621.87
235.927	621.59
236.157	621.48
236.388	622.21
236.618	621.78
236.849	621.39
237.08	623.45
237.31	623.7
237.541	622.9
237.771	621.96
238.002	621.08
238.232	620.48
238.463	622.18
238.693	621.98
238.923	621.14
239.154	620.59
239.384	621.19
239.615	618.87
239.845	617.87
240.075	617.32
240.306	616.41
240.536	616.45
240.766	615.94
240.997	613.98
241.227	613.21
241.457	612.48
241.687	611.94
241.918	611.43
242.148	611.63
242.378	612.87
242.608	612.78
242.839	612.98
243.069	611.85
243.299	611.32
243.529	612.5
243.759	613.01
243.989	612.9
244.22	613.19
244.45	611.81
244.68	610.68
244.91	609.23
245.14	608.59
245.37	608.32
245.6	608.85
245.83	609.27
246.06	606.3
246.29	605.43
246.52	605.03
246.75	604.5
246.98	604.36
247.21	605.18
247.44	604.59
247.67	604.03
247.9	604.03
248.13	603.21
248.359	602.65
248.589	602.03
248.819	601.41
249.049	601.67
249.279	599.56
249.509	598.67
249.738	597.14
249.968	597.21
250.198	596.12
250.428	595.36
250.657	595.58
250.887	593.88
251.117	593.07
251.347	592.56
251.576	590.08
251.806	589.94
252.036	589.16
252.265	589.58
252.495	590.52
252.725	590.54
252.954	589.63
253.184	589.01
253.413	589.52
253.643	589.58
253.873	588.52
254.102	588.5
254.332	587.79
254.561	587.63
254.791	586.14
255.02	583.72
255.25	583.58
255.479	583.1
255.708	580.85
255.938	580.38
256.167	578.92
256.397	578.41
256.626	578.41
256.856	578.23
257.085	577.05
257.314	576.38
257.544	574.94
257.773	573.94
258.002	573.68
258.232	573.9
258.461	572.16
258.69	572.43
258.919	571.32
259.149	570.12
259.378	569.78
259.607	569.19
259.836	568.1
260.065	567.05
260.295	565.59
260.524	564.58
260.753	564.88
260.982	563.5
261.211	562.67
261.44	562.25
261.669	562.23
261.899	560.23
262.128	559.9
262.357	558.81
262.586	560.21
262.815	559.5
263.044	558.63
263.273	560.12
263.502	560.7
263.731	559.92
263.96	557.99
264.189	555.63
264.418	554.36
264.646	553.43
264.875	553.45
265.104	550.68
265.333	550.21
265.562	550.14
265.791	545.74
266.02	544.34
266.249	543.85
266.477	544.63
266.706	543.98
266.935	543.99
267.164	544.54
267.393	543.18
267.621	542.76
267.85	542.25
268.079	541.19
268.307	540.94
268.536	538.98
268.765	538.14
268.993	537.76
269.222	538.27
269.451	538.12
269.679	536.56
269.908	537.67
270.137	538.05
270.365	538.3
270.594	538.81
270.822	538.38
271.051	539.92
271.279	539.3
271.508	538.28
271.736	538.83
271.965	539.21
272.193	539.52
272.422	539.03
272.65	538.61
272.879	538.47
273.107	536.96
273.336	537.63
273.564	536.87
273.792	537.48
274.021	537.07
274.249	535.52
274.477	533.98
274.706	532.08
274.934	530.58
275.162	529.65
275.391	528.79
275.619	528.03
275.847	526.3
276.075	525.79
276.304	523.98
276.532	523.54
276.76	523.3
276.988	523.48
277.216	523.67
277.445	523.32
277.673	522.41
277.901	521.41
278.129	521.23
278.357	521.16
278.585	520.03
278.813	519.67
279.041	517.08
279.269	515.56
279.497	513.74
279.725	512.87
279.954	511.54
280.182	511.88
280.41	511.45
280.637	511.14
280.865	509.58
281.093	509.28
281.321	508.7
281.549	509.7
281.777	509.36
282.005	509.74
282.233	510.54
282.461	509.5
282.689	507.96
282.916	507.88
283.144	506.41
283.372	506.16
283.6	505.7
283.828	504.98
284.055	505.34
284.283	504.67
284.511	504.52
284.739	501.99
284.966	502.32
285.194	501.63
285.422	500.58
285.649	499.99
285.877	500.21
286.105	500.07
286.332	499.98
286.56	499.18
286.788	498.61
287.015	497.7
287.243	497.56
287.47	496.67
287.698	496.16
287.925	495.92
288.153	496.05
288.381	495.32
288.608	494.07
288.836	493.88
289.063	493.5
289.29	493.34
289.518	493.28
289.745	492.98
289.973	492.81
290.2	491.92
290.428	491.1
290.655	489.58
290.882	488.76
291.11	489.32
291.337	487.41
291.564	486.32
291.792	485.01
292.019	483.27
292.246	483.27
292.473	482.56
292.701	483.68
292.928	483.19
293.155	482.99
293.382	483.07
293.61	481.23
293.837	481.19
294.064	481.47
294.291	480.76
294.518	480.68
294.745	479.16
294.972	478.99
295.2	477.03
295.427	476.14
295.654	476.52
295.881	475.98
296.108	476.25
296.335	476.47
296.562	475.32
296.789	475.98
297.016	476.59
297.243	476.47
297.47	475.79
297.697	475.76
297.924	474.88
298.151	472.74
298.378	471.78
298.604	471.48
298.831	471.27
299.058	471.9
299.285	471.88
299.512	469.41
299.739	469.72
299.966	468.56
300.192	468.08
300.419	468.3
300.646	469.48
300.873	468.25
301.099	467.36
301.326	466.99
301.553	465.05
301.78	465.28
302.006	465.72
302.233	464.83
302.46	465.14
302.686	465.1
302.913	463.63
303.14	461.96
303.366	461.74
303.593	461.47
303.819	460.83
304.046	461.59
304.272	461.16
304.499	461.01
304.725	461.1
304.952	460.88
305.179	460.48
305.405	461.52
305.631	461.14
305.858	462.14
306.084	461.63
306.311	461.05
306.537	459.85
306.764	458.38
306.99	458.39
307.216	457.92
307.443	456.38
307.669	456.99
307.895	455.68
308.122	455.39
308.348	454.9
308.574	454.81
308.801	454.63
309.027	454.14
309.253	453.5
309.479	453.03
309.706	452.32
309.932	453.32
310.158	452.19
310.384	452.56
310.61	453.21
310.837	451.94
311.063	451.38
311.289	451.41
311.515	451.76
311.741	451.45
311.967	451.38
312.193	451.68
312.419	451.25
312.645	450.78
312.871	450.21
313.097	449.85
313.323	450.78
313.549	452.1
313.775	451.5
314.001	450.88
314.227	450.74
314.453	451.34
314.679	450.1
314.905	450.87
315.131	450.48
315.357	452.59
315.583	452.74
315.809	452.18
316.034	452.28
316.26	453.16
316.486	454.43
316.712	455.08
316.938	454.36
317.163	455.76
317.389	455.83
317.615	457.67
317.841	456.9
318.066	457.74
318.292	458.21
318.518	457.25
318.743	457.63
318.969	458.83
319.195	459.99
319.42	459.81
319.646	461.27
319.872	461.99
320.097	462.34
320.323	462.72
320.548	464.34
320.774	466.32
320.999	468.45
321.225	469.38
321.45	469.99
321.676	471.34
321.901	474.9
322.127	476.16
322.352	478.01
322.578	479.07
322.803	481.36
323.029	481.92
323.254	483.28
323.479	484.39
323.705	485.81
323.93	486.88
324.155	489.48
324.381	489.96
324.606	491.18
324.831	493.58
325.057	495.99
325.282	497.65
325.507	500.07
325.732	501.68
325.958	504.96
326.183	507.19
326.408	510.79
326.633	512.3
326.858	514.98
327.084	517.79
327.309	519.9
327.534	522.08
327.759	525.54
327.984	527.87
328.209	530.39
328.434	533.43
328.659	537.1
328.884	539.92
329.109	543.23
329.334	546.54
329.559	549.92
329.784	552.36
330.009	556.52
330.234	559.61
330.459	563.48
330.684	567.85
330.909	570.23
331.134	574.72
331.359	577.58
331.584	581.88
331.809	585.39
332.034	589.74
332.259	594.98
332.483	598.7
332.708	603.79
332.933	609.19
333.158	613.72
333.383	618.07
333.607	622.92
333.832	628.16
334.057	631.99
334.282	637.18
334.506	642.3
334.731	647.3
334.956	652.1
335.18	656.83
335.405	661.16
335.63	666.05
335.854	671.18
336.079	675.61
336.303	681.67
336.528	688.21
336.753	693.5
336.977	700.08
337.202	705.43
337.426	712.01
337.651	717.68
337.875	724.39
338.1	731.59
338.324	738.9
338.549	747.16
338.773	753.38
338.997	759.78
339.222	767.21
339.446	773.03
339.671	781.72
339.895	789.27
340.119	798.25
340.344	805.7
340.568	814.32
340.792	822.32
341.017	828.05
341.241	836.1
341.465	844.58
341.689	852.41
341.914	862.32
342.138	868.9
342.362	876.98
342.586	883.08
342.811	891.41
343.035	898.78
343.259	908.05
343.483	917.48
343.707	926.56
343.931	934.56
344.155	944.07
344.38	952.58
344.604	963.21
344.828	972.23
345.052	981.87
345.276	990.1
345.5	999.39
345.724	1007.96
345.948	1017.92
346.172	1027.14
346.396	1038.14
346.62	1049.65
346.844	1057.59
347.068	1067.23
347.292	1078.99
347.515	1089.56
347.739	1101.83
347.963	1112.28
348.187	1124.1
348.411	1134.08
348.635	1144.45
348.859	1154.58
349.082	1165.87
349.306	1176.56
349.53	1187.1
349.754	1197.68
349.977	1207.21
350.201	1216.7
350.425	1227.43
350.649	1237.78
350.872	1249.3
351.096	1260.76
351.32	1272.79
351.543	1281.25
351.767	1292.08
351.99	1303.68
352.214	1313.58
352.438	1326.43
352.661	1336.9
352.885	1348.94
353.108	1360.19
353.332	1369.65
353.555	1380.92
353.779	1392.32
354.002	1404.43
354.226	1418.7
354.449	1430.3
354.673	1444.5
354.896	1456.03
355.12	1469.3
355.343	1482.38
355.566	1494.61
355.79	1508.32
356.013	1520.67
356.237	1532.03
356.46	1544.85
356.683	1555.74
356.907	1566.19
357.13	1576.67
357.353	1590.39
357.576	1602.08
357.8	1613.76
358.023	1623.98
358.246	1637.61
358.469	1651.27
358.693	1663.83
358.916	1674.19
359.139	1687.96
359.362	1701.03
359.585	1713.72
359.808	1726.28
360.031	1740.19
360.255	1752.23
360.478	1767.1
360.701	1778.3
360.924	1792.5
361.147	1804.5
361.37	1819.79
361.593	1832.9
361.816	1848.98
362.039	1862.01
362.262	1874.59
362.485	1890.27
362.708	1904.36
362.931	1917.58
363.154	1931.92
363.377	1945.34
363.599	1960.87
363.822	1975.7
364.045	1989.12
364.268	2002.01
364.491	2017.59
364.714	2031.54
364.936	2041.48
365.159	2053.85
365.382	2069.65
365.605	2083.85
365.828	2099.98
366.05	2112.48
366.273	2126.01
366.496	2141.92
366.718	2158.63
366.941	2172.39
367.164	2186.52
367.386	2201.74
367.609	2218.56
367.832	2235.61
368.054	2250.87
368.277	2263.9
368.5	2281.7
368.722	2297.19
368.945	2312.41
369.167	2326.87
369.39	2341.1
369.612	2358.07
369.835	2377.03
370.057	2393.5
370.28	2409.28
370.502	2428.88
370.725	2445.54
370.947	2462.88
371.169	2482.32
371.392	2499.52
371.614	2516.87
371.837	2535.25
372.059	2553.48
372.281	2569.28
372.504	2588.94
372.726	2604.94
372.948	2619.12
373.171	2635.47
373.393	2652.61
373.615	2667.23
373.837	2686.96
374.06	2702.34
374.282	2721.12
374.504	2740.3
374.726	2760.28
374.948	2776.83
375.17	2796.19
375.393	2816.78
375.615	2838.7
375.837	2857.79
376.059	2878.58
376.281	2894.7
376.503	2912.39
376.725	2930.52
376.947	2949.08
377.169	2970.7
377.391	2990.61
377.613	3008.81
377.835	3028.23
378.057	3045.96
378.279	3069.08
378.501	3090.08
378.723	3109.19
378.945	3131.65
379.167	3154.27
379.389	3175.58
379.611	3196.25
379.833	3217.99
380.054	3242.63
380.276	3266.25
380.498	3292.34
380.72	3315.88
380.942	3334.65
381.163	3362.59
381.385	3391.12
381.607	3418.12
381.829	3443.45
382.05	3465.74
382.272	3488.79
382.494	3512.92
382.716	3537.87
382.937	3559.78
383.159	3581.43
383.381	3613.25
383.602	3637.19
383.824	3662.7
384.045	3687.38
384.267	3713.28
384.488	3741.19
384.71	3774.43
384.932	3799.67
385.153	3825.28
385.375	3853.63
385.596	3879.21
385.818	3904.28
386.039	3933.39
386.261	3960.27
386.482	3987.87
386.703	4014.78
386.925	4040.25
387.146	4063.54
387.368	4087.78
387.589	4114.65
387.81	4141.59
388.032	4174.18
388.253	4201.47
388.474	4225.14
388.696	4252.19
388.917	4279.78
389.138	4309.01
389.359	4337.45
389.581	4364.87
389.802	4399.32
390.023	4431.32
390.244	4460.74
390.465	4484.56
390.687	4514.85
390.908	4549.08
391.129	4577.7
391.35	4608.96
391.571	4640.76
391.792	4673.72
392.013	4704.5
392.234	4735.34
392.455	4765.92
392.677	4797.99
392.898	4831.3
393.119	4863.72
393.34	4893.1
393.561	4926.65
393.782	4956.05
394.003	4984.52
394.223	5014.05
394.444	5049.21
394.665	5083.16
394.886	5116.01
395.107	5150.27
395.328	5188.23
395.549	5219.83
395.77	5259.16
395.99	5290.23
396.211	5325.19
396.432	5362.83
396.653	5398.68
396.874	5430.25
397.094	5459.25
397.315	5491.54
397.536	5521.59
397.757	5549.87
397.977	5583.87
398.198	5609.94
398.419	5648.7
398.639	5680.25
398.86	5711.56
399.081	5744.81
399.301	5779.92
399.522	5816.81
399.742	5850.08
399.963	5888.74
400.184	5924.43
400.404	5958.78
400.625	5995.96
400.845	6029.3
401.066	6065.14
401.286	6096.58
401.507	6130.99
401.727	6159.94
401.948	6193.85
402.168	6230.85
402.388	6262.72
402.609	6297.39
402.829	6333.59
403.05	6365.9
403.27	6399.38
403.49	6436.03
403.711	6471.47
403.931	6505.32
404.151	6545.16
404.372	6581.07
404.592	6614.59
404.812	6650.07
405.032	6682.61
405.253	6712.88
405.473	6749.59
405.693	6783.39
405.913	6818.5
406.133	6857.12
406.353	6898.9
406.574	6935.38
406.794	6970.45
407.014	7007.94
407.234	7039.78
407.454	7078.74
407.674	7115.58
407.894	7149.96
408.114	7188.45
408.334	7222.45
408.554	7254.16
408.774	7283.14
408.994	7316.65
409.214	7353.68
409.434	7385.47
409.654	7422.19
409.874	7458.48
410.094	7498.34
410.314	7537.94
410.534	7570.28
410.754	7605.58
410.974	7646.08
411.193	7685.01
411.413	7721.96
411.633	7763.39
411.853	7803.74
412.073	7845.36
412.292	7878.94
412.512	7913.81
412.732	7951.14
412.952	7992.83
413.171	8039.36
413.391	8077.18
413.611	8119.19
413.831	8167.87
414.05	8201.59
414.27	8243.96
414.489	8282.65
414.709	8326.58
414.929	8371.21
415.148	8411.12
415.368	8456.21
415.587	8497.1
415.807	8542.19
416.026	8584.56
416.246	8622.54
416.465	8671.38
416.685	8713.38
416.904	8756.45
417.124	8800.68
417.343	8841.28
417.563	8890.83
417.782	8931.1
418.002	8976.25
418.221	9018.81
418.44	9062.88
418.66	9103.05
418.879	9147.74
419.098	9193.88
419.318	9241.58
419.537	9286.1
419.756	9336.25
419.976	9379.07
420.195	9422.98
420.414	9463.99
420.633	9506.34
420.853	9549.1
421.072	9594.96
421.291	9636.67
421.51	9684.58
421.729	9730.88
421.948	9777.03
422.168	9816.74
422.387	9857.7
422.606	9897.58
422.825	9945.45
423.044	9992.05
423.263	10040.54
423.482	10090.99
423.701	10137.01
423.92	10173.74
424.139	10219.36
424.358	10264.67
424.577	10310.83
424.796	10358.99
425.015	10408.61
425.234	10448.76
425.453	10490.12
425.672	10533.52
425.891	10578.18
426.11	10622.87
426.328	10668.78
426.547	10711.92
426.766	10755.38
426.985	10805.05
427.204	10845.74
427.422	10900.1
427.641	10950.9
427.86	11005.07
428.079	11047.68
428.297	11087.96
428.516	11137.27
428.735	11196.92
428.954	11243.21
429.172	11294.18
429.391	11343.85
429.61	11393.25
429.828	11435.03
430.047	11480.12
430.265	11524.94
430.484	11575.25
430.703	11626.03
430.921	11671.79
431.14	11714.43
431.358	11762.92
431.577	11806.01
431.795	11849.65
432.014	11900.47
432.232	11950.45
432.451	12001.07
432.669	12049.63
432.887	12099.21
433.106	12149.14
433.324	12190.72
433.543	12234.7
433.761	12277.54
433.979	12328.87
434.198	12379.98
434.416	12424.96
434.634	12468.01
434.853	12510.41
435.071	12556.41
435.289	12603.03
435.507	12652.9
435.726	12706.74
435.944	12751.19
436.162	12806.21
436.38	12850.7
436.598	12892.98
436.817	12943.21
437.035	12988.27
437.253	13036.54
437.471	13083.03
437.689	13128.34
437.907	13171.61
438.125	13217.3
438.343	13262.99
438.561	13309.3
438.78	13359.52
438.998	13408.19
439.216	13453.61
439.434	13501.98
439.652	13547.7
439.869	13598.39
440.087	13649.08
440.305	13698.19
440.523	13745.81
440.741	13788.65
440.959	13829.32
441.177	13874.88
441.395	13923.39
441.613	13967.38
441.831	14012.68
442.048	14061.61
442.266	14107.3
442.484	14158.27
442.702	14202.19
442.919	14251.08
443.137	14304.94
443.355	14360.48
443.573	14410.3
443.79	14460.68
444.008	14511.98
444.226	14572.7
444.443	14621.63
444.661	14677.25
444.879	14719.14
445.096	14774.52
445.314	14818.72
445.532	14868.08
445.749	14909.72
445.967	14953.08
446.184	15001.56
446.402	15055.07
446.619	15095.38
446.837	15143.25
447.054	15191.85
447.272	15237.21
447.489	15276.47
447.707	15323.98
447.924	15375.45
448.141	15430.03
448.359	15482.78
448.576	15528.88
448.794	15574.92
449.011	15626.98
449.228	15677.58
449.446	15722.1
449.663	15776.74
449.88	15827.08
450.098	15877.3
450.315	15920.79
450.532	15960.65
450.749	16008.81
450.967	16053.83
451.184	16105.03
451.401	16150.63
451.618	16198.14
451.835	16238.21
452.052	16283.76
452.27	16336.48
452.487	16384.87
452.704	16441.39
452.921	16488.72
453.138	16533.27
453.355	16581.38
453.572	16626.38
453.789	16672.07
454.006	16719.92
454.223	16773.45
454.44	16819.41
454.657	16863.58
