Data from test1_MAYP1115451__67__10-17-31-775.txt Node

Date: Wed Jun 12 10:17:31 MDT 2024
User: Modes Lab
Spectrometer: MAYP111545
Trigger mode: 0
Integration Time (sec): 8.000000E-3
Scans to average: 5
Electric dark correction enabled: true
Nonlinearity correction enabled: false
Boxcar width: 5
XAxis mode: Wavelengths
Number of Pixels in Spectrum: 2068
>>>>>Begin Spectral Data<<<<<
165.214	164.2
165.449	164
165.683	173.92
165.918	183.08
166.152	189.93
166.387	195.15
166.621	126.73
166.856	165.8
167.09	185
167.325	208.37
167.559	223.91
167.794	237.55
168.028	245.06
168.263	245.66
168.497	245.17
168.732	245.68
168.966	245.84
169.2	247.58
169.435	248.49
169.669	249.2
169.903	251.28
170.138	253.49
170.372	255.71
170.606	257.26
170.841	258.38
171.075	259.31
171.309	260.17
171.544	261.78
171.778	263.58
172.012	266.02
172.246	267.86
172.48	269.48
172.715	271.69
172.949	273.84
173.183	276.49
173.417	278.62
173.651	281.46
173.885	282.64
174.119	284.04
174.354	283.97
174.588	284.24
174.822	284.97
175.056	284.37
175.29	283.78
175.524	282.64
175.758	281.97
175.992	281.42
176.226	280.04
176.46	281.15
176.694	282.29
176.928	282.95
177.162	282.86
177.396	283.48
177.63	285.58
177.864	286.73
178.097	288.17
178.331	289.86
178.565	291.02
178.799	292.95
179.033	293.02
179.267	293.91
179.5	294.57
179.734	295.66
179.968	297.35
180.202	297.78
180.436	299
180.669	299.91
180.903	299.8
181.137	300.91
181.371	301.57
181.604	302.71
181.838	303.02
182.072	305.28
182.305	305.88
182.539	305.06
182.772	305.57
183.006	306.64
183.24	308
183.473	311.8
183.707	313.66
183.94	314.15
184.174	315.38
184.408	316.2
184.641	317.64
184.875	319
185.108	321.29
185.342	322.62
185.575	323.98
185.808	325.11
186.042	323.17
186.275	324.24
186.509	326.24
186.742	327.26
186.976	328.86
187.209	329.4
187.442	331.91
187.676	332.71
187.909	332.98
188.142	334.62
188.376	336.13
188.609	339.26
188.842	340.17
189.076	341.2
189.309	343.08
189.542	343.98
189.775	346.38
190.009	347.57
190.242	350.58
190.475	352.86
190.708	353.97
190.941	355.64
191.174	356.18
191.408	358.37
191.641	361.02
191.874	363.28
192.107	366.84
192.34	367.09
192.573	368.4
192.806	369.91
193.039	371.97
193.272	373.53
193.505	375.58
193.738	377.86
193.971	379.57
194.204	381.15
194.437	382.77
194.67	383
194.903	385.73
195.136	387.42
195.369	388.02
195.602	390.26
195.835	392.02
196.068	394.11
196.301	395.29
196.533	396.82
196.766	398.11
196.999	401.28
197.232	404.04
197.465	404.46
197.698	406.6
197.93	410.11
198.163	411.93
198.396	414.64
198.629	415.84
198.861	417.97
199.094	420.6
199.327	422.86
199.559	423.55
199.792	425.09
200.025	428.51
200.257	431.26
200.49	432.11
200.723	434.64
200.955	436.33
201.188	439.04
201.42	442.26
201.653	444.22
201.886	446.98
202.118	449.28
202.351	451.75
202.583	454.08
202.816	455.71
203.048	458.98
203.281	459.8
203.513	461.77
203.745	464.11
203.978	465.6
204.21	467.46
204.443	469.35
204.675	471.46
204.907	473.46
205.14	475.11
205.372	476.69
205.605	478.97
205.837	482.18
206.069	485.22
206.302	486.11
206.534	487.8
206.766	490.15
206.998	492.86
207.231	493.73
207.463	495.46
207.695	498.29
207.927	501.66
208.159	503.37
208.392	505.04
208.624	505.6
208.856	507.44
209.088	509.77
209.32	512.15
209.552	514.11
209.784	517.66
210.017	520.4
210.249	522.11
210.481	523.82
210.713	526.57
210.945	528.51
211.177	531.4
211.409	534.8
211.641	536.13
211.873	537.88
212.105	539.93
212.337	540.93
212.569	543.78
212.801	546.44
213.033	548.86
213.264	549.88
213.496	551.8
213.728	554.48
213.96	555.89
214.192	557.84
214.424	559.18
214.656	559.97
214.887	562.53
215.119	562.86
215.351	564.71
215.583	566.86
215.815	568.11
216.046	569.51
216.278	569.49
216.51	570.86
216.741	574.29
216.973	576.04
217.205	578.44
217.436	580.15
217.668	582.98
217.9	584.08
218.131	585.15
218.363	586.91
218.595	589.82
218.826	591.31
219.058	592.86
219.289	592.35
219.521	593.62
219.752	593.64
219.984	595.2
220.215	594.24
220.447	596.11
220.678	596.66
220.91	597.75
221.141	596.98
221.373	598.97
221.604	599.71
221.836	601.8
222.067	603.77
222.298	605.24
222.53	605.86
222.761	608.38
222.993	609.38
223.224	611.2
223.455	613
223.686	615.53
223.918	614.77
224.149	616.66
224.38	616.42
224.612	616.02
224.843	616.89
225.074	617.44
225.305	617.66
225.536	616.31
225.768	616.22
225.999	616.55
226.23	616.11
226.461	618.11
226.692	617.37
226.923	619.66
227.155	622.46
227.386	622.88
227.617	623.22
227.848	623.24
228.079	624.95
228.31	625.09
228.541	624.89
228.772	626.08
229.003	627.58
229.234	628.6
229.465	627.49
229.696	625.33
229.927	625.6
230.158	625.08
230.389	624.42
230.62	623.93
230.85	624.97
231.081	624.18
231.312	624.18
231.543	623.37
231.774	622.68
232.005	622.4
232.236	623.04
232.466	623.04
232.697	623.11
232.928	624.18
233.159	624.57
233.389	623.35
233.62	624.82
233.851	623.82
234.082	623.64
234.312	623.75
234.543	624.51
234.774	623.42
235.004	623.64
235.235	624.22
235.466	624.29
235.696	623.95
235.927	622.31
236.157	621.42
236.388	621.62
236.618	621.28
236.849	620.55
237.08	620.66
237.31	621.46
237.541	621.02
237.771	621.33
238.002	621.97
238.232	621.71
238.463	622.28
238.693	622.46
238.923	621.93
239.154	621.93
239.384	623
239.615	622.2
239.845	621.57
240.075	621.13
240.306	620.55
240.536	618.22
240.766	617.04
240.997	617.29
241.227	616.69
241.457	616.93
241.687	616.78
241.918	617.2
242.148	616.15
242.378	614.98
242.608	613.73
242.839	612.53
243.069	611.88
243.299	612.58
243.529	613.08
243.759	611.64
243.989	610.06
244.22	608.38
244.45	607.51
244.68	607.46
244.91	608.29
245.14	608.84
245.37	609.26
245.6	609.38
245.83	608.35
246.06	606.28
246.29	606.75
246.52	606.91
246.75	606.2
246.98	605.15
247.21	603.24
247.44	601.44
247.67	600.89
247.9	599.55
248.13	600.75
248.359	600.15
248.589	599.84
248.819	599.31
249.049	598.58
249.279	598.28
249.509	597.04
249.738	596.38
249.968	595.89
250.198	594.35
250.428	593.78
250.657	591.49
250.887	590.6
251.117	590.26
251.347	589.31
251.576	588.75
251.806	589.02
252.036	588.22
252.265	588.64
252.495	588.73
252.725	589.91
252.954	590.26
253.184	589.62
253.413	589.28
253.643	588.78
253.873	588.18
254.102	587.69
254.332	586.66
254.561	587.06
254.791	586.31
255.02	585.86
255.25	584.26
255.479	583.51
255.708	583.53
255.938	582.97
256.167	582.89
256.397	581.91
256.626	580.97
256.856	580.89
257.085	580.8
257.314	582.15
257.544	581.11
257.773	580.62
258.002	580.77
258.232	579.89
258.461	578.84
258.69	577.15
258.919	576.73
259.149	575.8
259.378	573.71
259.607	571.22
259.836	569.04
260.065	568.4
260.295	567.68
260.524	566.64
260.753	566.51
260.982	565.02
261.211	565.18
261.44	565.55
261.669	566.15
261.899	566.26
262.128	564.88
262.357	564.04
262.586	563.22
262.815	563.11
263.044	559.55
263.273	562.33
263.502	563.86
263.731	563.13
263.96	561.37
264.189	561.09
264.418	558.98
264.646	559.51
264.875	559.29
265.104	558.15
265.333	555.68
265.562	555.89
265.791	550.24
266.02	547.31
266.249	547.02
266.477	546.98
266.706	544.42
266.935	543.51
267.164	542.51
267.393	541.38
267.621	541.53
267.85	541.53
268.079	540.64
268.307	540.86
268.536	540.78
268.765	539.09
268.993	537.58
269.222	536.66
269.451	537.8
269.679	537.6
269.908	537.18
270.137	536.42
270.365	536.91
270.594	537.26
270.822	538.06
271.051	539.22
271.279	539.17
271.508	539.46
271.736	541.51
271.965	541.29
272.193	542.18
272.422	542.88
272.65	542.28
272.879	540.71
273.107	540.8
273.336	539.93
273.564	539.24
273.792	538.64
274.021	538.02
274.249	536.24
274.477	533.73
274.706	531.17
274.934	529.37
275.162	528.75
275.391	529.04
275.619	527.02
275.847	525.08
276.075	522.95
276.304	521.98
276.532	521.46
276.76	519.97
276.988	520.4
277.216	520.6
277.445	519.97
277.673	519.88
277.901	518.31
278.129	519.15
278.357	518.78
278.585	518.33
278.813	517.55
279.041	516.88
279.269	516.44
279.497	516.49
279.725	516.06
279.954	515.64
280.182	514.82
280.41	515.4
280.637	513.98
280.865	513.53
281.093	515.11
281.321	514.91
281.549	513.69
281.777	514.02
282.005	513.8
282.233	513.17
282.461	512.84
282.689	513.15
282.916	512.8
283.144	512.71
283.372	511.84
283.6	510.4
283.828	509.8
284.055	509.77
284.283	509.08
284.511	508.35
284.739	507.48
284.966	507.11
285.194	506.08
285.422	504.71
285.649	503.97
285.877	503.71
286.105	503.73
286.332	503.15
286.56	503.75
286.788	502.4
287.015	501.88
287.243	501.2
287.47	500.24
287.698	498.66
287.925	498.78
288.153	498.86
288.381	498.64
288.608	496.62
288.836	495.84
289.063	494.42
289.29	494.35
289.518	492.89
289.745	492.31
289.973	491.22
290.2	491.73
290.428	490.22
290.655	488.53
290.882	487.98
291.11	486.73
291.337	486.44
291.564	485.69
291.792	485.09
292.019	485.78
292.246	485.04
292.473	483.73
292.701	482.55
292.928	482.33
293.155	482.06
293.382	481
293.61	481.73
293.837	481.33
294.064	480.95
294.291	479.73
294.518	478.66
294.745	478.8
294.972	479.93
295.2	479.69
295.427	479.73
295.654	478.88
295.881	479.08
296.108	478.49
296.335	478.37
296.562	478.06
296.789	477.98
297.016	477.48
297.243	476.62
297.47	475.77
297.697	474.88
297.924	473.17
298.151	472.78
298.378	472.6
298.604	471.73
298.831	471.84
299.058	471.37
299.285	471.42
299.512	471.29
299.739	470.64
299.966	470.29
300.192	469.77
300.419	470.29
300.646	469.89
300.873	468.66
301.099	469.15
301.326	467
301.553	465.82
301.78	466.42
302.006	465.97
302.233	466.09
302.46	465.44
302.686	465.64
302.913	465.31
303.14	464.68
303.366	465.71
303.593	464.8
303.819	465.29
304.046	464.95
304.272	464.95
304.499	465.26
304.725	464.09
304.952	462.82
305.179	461.71
305.405	460.86
305.631	461.29
305.858	460.66
306.084	460.09
306.311	459.57
306.537	459.08
306.764	456.95
306.99	454.91
307.216	455.31
307.443	455.66
307.669	455.4
307.895	455.02
308.122	454
308.348	453.22
308.574	452.64
308.801	453.15
309.027	454.48
309.253	453.55
309.479	454.22
309.706	454
309.932	453.35
310.158	453.22
310.384	452.62
310.61	454.04
310.837	453.4
311.063	453.53
311.289	451.97
311.515	450.57
311.741	451.24
311.967	450.82
312.193	451.26
312.419	452.42
312.645	452.58
312.871	453.38
313.097	452.82
313.323	452.82
313.549	454.64
313.775	454.97
314.001	456.02
314.227	455.69
314.453	455.68
314.679	455.37
314.905	455.18
315.131	455.46
315.357	454.4
315.583	454.4
315.809	455.09
316.034	453.49
316.26	453.97
316.486	453.24
316.712	454.48
316.938	454.97
317.163	455.69
317.389	455.37
317.615	456.2
317.841	457.71
318.066	458.29
318.292	459.09
318.518	460.78
318.743	461.66
318.969	462.53
319.195	463.44
319.42	464.38
319.646	465.69
319.872	466.68
320.097	467.89
320.323	469.28
320.548	470.71
320.774	471.88
320.999	471.68
321.225	471.93
321.45	473.06
321.676	473.49
321.901	474.77
322.127	474.78
322.352	477.42
322.578	478.15
322.803	479.88
323.029	480.75
323.254	481.48
323.479	482.58
323.705	485.95
323.93	487.35
324.155	490.69
324.381	492.09
324.606	494.26
324.831	495.55
325.057	497.17
325.282	498.24
325.507	500.73
325.732	503.73
325.958	506.17
326.183	508.44
326.408	511.57
326.633	512.49
326.858	515.97
327.084	518.22
327.309	520.86
327.534	524.26
327.759	527.53
327.984	530.58
328.209	532.82
328.434	536.2
328.659	538.49
328.884	541.57
329.109	544
329.334	546.8
329.559	550.22
329.784	553.6
330.009	557.42
330.234	559.73
330.459	563.24
330.684	567.37
330.909	571.8
331.134	574.66
331.359	577.66
331.584	583.28
331.809	587.35
332.034	592.57
332.259	595.73
332.483	599.48
332.708	604.51
332.933	608.11
333.158	611.93
333.383	615.55
333.607	621.78
333.832	627.04
334.057	632
334.282	636.17
334.506	639.62
334.731	646.22
334.956	652.11
335.18	657.62
335.405	664.57
335.63	670.48
335.854	676.51
336.079	681.24
336.303	685.82
336.528	690.35
336.753	696.48
336.977	703.88
337.202	709.64
337.426	714.93
337.651	720.91
337.875	727.02
338.1	733.06
338.324	740.15
338.549	747.91
338.773	757.09
338.997	764.11
339.222	770.77
339.446	776.91
339.671	783.4
339.895	791.26
340.119	799.08
340.344	806.09
340.568	814.02
340.792	820.49
341.017	828.46
341.241	835.91
341.465	844.4
341.689	852.58
341.914	860.75
342.138	868.78
342.362	876.06
342.586	883.91
342.811	891.31
343.035	898.98
343.259	908.09
343.483	916.02
343.707	924.2
343.931	932.49
344.155	941.88
344.38	950.8
344.604	961.97
344.828	972.4
345.052	981.13
345.276	991.11
345.5	1000.55
345.724	1010.06
345.948	1018.57
346.172	1028.13
346.396	1037.33
346.62	1047.89
346.844	1057.44
347.068	1065
347.292	1073.97
347.515	1084.37
347.739	1097.09
347.963	1107
348.187	1116.89
348.411	1128
348.635	1139.35
348.859	1151
349.082	1161.64
349.306	1170.42
349.53	1182.62
349.754	1195.13
349.977	1207.62
350.201	1217.51
350.425	1228.77
350.649	1240.66
350.872	1251.51
351.096	1260.22
351.32	1272.4
351.543	1282.38
351.767	1297.66
351.99	1307.62
352.214	1317.33
352.438	1328.26
352.661	1337.37
352.885	1349.06
353.108	1359.6
353.332	1371.53
353.555	1384
353.779	1395.97
354.002	1409.17
354.226	1418.57
354.449	1431.82
354.673	1444.37
354.896	1453.84
355.12	1466.62
355.343	1478.49
355.566	1490.35
355.79	1503.91
356.013	1516.38
356.237	1528.06
356.46	1541.42
356.683	1554.62
356.907	1565.53
357.13	1578.15
357.353	1591.06
357.576	1602.86
357.8	1614.93
358.023	1628.49
358.246	1639.91
358.469	1652.88
358.693	1663.09
358.916	1672.08
359.139	1683.97
359.362	1697.62
359.585	1710.22
359.808	1723.64
360.031	1738.24
360.255	1751.73
360.478	1764.97
360.701	1778.69
360.924	1791.38
361.147	1806.64
361.37	1822.24
361.593	1835.44
361.816	1848.62
362.039	1861.73
362.262	1875.91
362.485	1887.91
362.708	1902.77
362.931	1918.77
363.154	1930.28
363.377	1943.38
363.599	1954.75
363.822	1966.71
364.045	1982.88
364.268	1997.8
364.491	2011.17
364.714	2024.57
364.936	2037.66
365.159	2051.04
365.382	2062.82
365.605	2077.18
365.828	2095.17
366.05	2109.4
366.273	2124.78
366.496	2138.35
366.718	2153.95
366.941	2169.8
367.164	2185.84
367.386	2203.15
367.609	2220.08
367.832	2236.89
368.054	2253.8
368.277	2265.53
368.5	2282.73
368.722	2299.93
368.945	2316.2
369.167	2333.93
369.39	2350.11
369.612	2367.86
369.835	2383.97
370.057	2400.84
370.28	2416.13
370.502	2433.89
370.725	2451.4
370.947	2471.53
371.169	2488.86
371.392	2505.49
371.614	2518.71
371.837	2537.69
372.059	2555.17
372.281	2571.2
372.504	2586.04
372.726	2604.09
372.948	2617.08
373.171	2635.35
373.393	2649.86
373.615	2666.33
373.837	2686.38
374.06	2703.88
374.282	2720.02
374.504	2736.46
374.726	2754.75
374.948	2775.22
375.17	2791.24
375.393	2811.82
375.615	2830.89
375.837	2852.6
376.059	2871.6
376.281	2887.09
376.503	2907
376.725	2924.69
376.947	2946.17
377.169	2965.95
377.391	2984.58
377.613	3009.37
377.835	3031.4
378.057	3049.57
378.279	3069.18
378.501	3091.68
378.723	3112.48
378.945	3134.33
379.167	3158.35
379.389	3177.53
379.611	3199.38
379.833	3222.22
380.054	3241.86
380.276	3265.08
380.498	3287.98
380.72	3310.06
380.942	3334.33
381.163	3361.38
381.385	3385.95
381.607	3408.26
381.829	3433.13
382.05	3460.06
382.272	3482.53
382.494	3508.57
382.716	3533.58
382.937	3557.57
383.159	3582.33
383.381	3605.48
383.602	3629.49
383.824	3656.78
384.045	3683.69
384.267	3709.11
384.488	3735.04
384.71	3763.31
384.932	3787.51
385.153	3813.95
385.375	3844.53
385.596	3871.82
385.818	3896.86
386.039	3925.08
386.261	3950.09
386.482	3978.29
386.703	4005.68
386.925	4032.73
387.146	4060.35
387.368	4088.13
387.589	4117.82
387.81	4146
388.032	4175.26
388.253	4207.18
388.474	4234.55
388.696	4260.49
388.917	4288
389.138	4317.09
389.359	4347.48
389.581	4375.64
389.802	4408.06
390.023	4436.08
390.244	4466.33
390.465	4495.8
390.687	4525.13
390.908	4553.04
391.129	4587.89
391.35	4619.22
391.571	4649.8
391.792	4680.95
392.013	4714.11
392.234	4745.66
392.455	4779.15
392.677	4811.69
392.898	4842.6
393.119	4876.75
393.34	4910.82
393.561	4939.18
393.782	4973.8
394.003	5005.44
394.223	5035.06
394.444	5065.62
394.665	5097.53
394.886	5129.97
395.107	5162.73
395.328	5196.78
395.549	5228.35
395.77	5260.6
395.99	5296.11
396.211	5326.98
396.432	5360.28
396.653	5396.02
396.874	5432.37
397.094	5462.58
397.315	5492.15
397.536	5524.13
397.757	5555.69
397.977	5588.11
398.198	5621.15
398.419	5652.88
398.639	5684.04
398.86	5719.29
399.081	5749.73
399.301	5778.22
399.522	5813.68
399.742	5850.42
399.963	5883.15
400.184	5920.48
400.404	5951.66
400.625	5987.77
400.845	6023.18
401.066	6057.98
401.286	6093.44
401.507	6129.73
401.727	6170.06
401.948	6201.09
402.168	6232.69
402.388	6267.58
402.609	6300.44
402.829	6338.57
403.05	6372.48
403.27	6407
403.49	6440.95
403.711	6474.08
403.931	6508.48
404.151	6537.53
404.372	6573.91
404.592	6608.4
404.812	6645.86
405.032	6681.11
405.253	6713.13
405.473	6747.11
405.693	6782.28
405.913	6817.89
406.133	6851.13
406.353	6888.58
406.574	6924.08
406.794	6958.95
407.014	6994.53
407.234	7026.17
407.454	7063.95
407.674	7101.6
407.894	7138.88
408.114	7177.71
408.334	7215.95
408.554	7258.44
408.774	7295.71
408.994	7337.15
409.214	7375.75
409.434	7413.09
409.654	7450.13
409.874	7482.62
410.094	7519.95
410.314	7556.48
410.534	7592.6
410.754	7631.06
410.974	7666.84
411.193	7704.82
411.413	7739.33
411.633	7778
411.853	7816.31
412.073	7851.02
412.292	7891.37
412.512	7927.58
412.732	7965.8
412.952	8001.17
413.171	8038.75
413.391	8077.82
413.611	8115.95
413.831	8156.6
414.05	8199.37
414.27	8241.2
414.489	8287.2
414.709	8326.08
414.929	8372.28
415.148	8414.53
415.368	8457.29
415.587	8496.13
415.807	8541.33
416.026	8583.55
416.246	8630.04
416.465	8669.44
416.685	8715.33
416.904	8757.86
417.124	8805.22
417.343	8847.66
417.563	8895.13
417.782	8944.44
418.002	8994.24
418.221	9035.95
418.44	9081.53
418.66	9125.64
418.879	9171.4
419.098	9211.78
419.318	9261.71
419.537	9306.58
419.756	9348.98
419.976	9388.06
420.195	9428.04
420.414	9474.46
420.633	9516.75
420.853	9560.08
421.072	9600.51
421.291	9647.09
421.51	9695.22
421.729	9733.02
421.948	9776.42
422.168	9820.97
422.387	9867.17
422.606	9912
422.825	9950.66
423.044	9998.15
423.263	10040.55
423.482	10085.6
423.701	10128.6
423.92	10169.38
424.139	10216.62
424.358	10258.73
424.577	10302.11
424.796	10348.42
425.015	10394.82
425.234	10448.42
425.453	10490.17
425.672	10534.62
425.891	10583.91
426.11	10629.2
426.328	10678.58
426.547	10720.4
426.766	10775.15
426.985	10820.09
427.204	10865.68
427.422	10915.26
427.641	10956.37
427.86	11005.93
428.079	11054.28
428.297	11102.73
428.516	11147.68
428.735	11196.62
428.954	11247.15
429.172	11292.88
429.391	11345
429.61	11395.71
429.828	11442.53
430.047	11493.35
430.265	11540.82
430.484	11587.86
430.703	11630.42
430.921	11682.8
431.14	11721.71
431.358	11768.55
431.577	11808.15
431.795	11856.58
432.014	11905.4
432.232	11951.89
432.451	12001.57
432.669	12051.68
432.887	12105.13
433.106	12150.29
433.324	12192.46
433.543	12249.57
433.761	12300.77
433.979	12351.17
434.198	12398.6
434.416	12445.15
434.634	12487.57
434.853	12525.38
435.071	12575.78
435.289	12618.15
435.507	12666.31
435.726	12713.09
435.944	12755.11
436.162	12790.29
436.38	12836.58
436.598	12876.48
436.817	12921.93
437.035	12969.89
437.253	13016.97
437.471	13058.86
437.689	13103.2
437.907	13156.57
438.125	13212.46
438.343	13260.11
438.561	13315.26
438.78	13364.22
438.998	13418.37
439.216	13464.75
439.434	13514.4
439.652	13567.31
439.869	13612.38
440.087	13670.08
440.305	13717.6
440.523	13763.02
440.741	13811.97
440.959	13864.91
441.177	13911.31
441.395	13954.42
441.613	14006.8
441.831	14052.4
442.048	14094.73
442.266	14141.29
442.484	14180.55
442.702	14228.11
442.919	14273.82
443.137	14324.29
443.355	14374
443.573	14420.48
443.79	14474.86
444.008	14519.31
444.226	14573.58
444.443	14627.58
444.661	14675.18
444.879	14722.84
445.096	14765.15
445.314	14813.82
445.532	14852.13
445.749	14896.64
445.967	14949.33
446.184	14990.58
446.402	15034.57
446.619	15073
446.837	15115.86
447.054	15162.24
447.272	15214.58
447.489	15263.62
447.707	15313.17
447.924	15367.86
448.141	15414.46
448.359	15458.55
448.576	15511.24
448.794	15571.78
449.011	15624.4
449.228	15674.18
449.446	15720.26
449.663	15762.31
449.88	15812.78
450.098	15859.58
450.315	15913.2
450.532	15965.84
450.749	16011.93
450.967	16056.66
451.184	16094.73
451.401	16145.91
451.618	16199.64
451.835	16255.86
452.052	16310.51
452.27	16354.86
452.487	16400.46
452.704	16446.15
452.921	16483.93
453.138	16536.8
453.355	16589.97
453.572	16640.89
453.789	16691.09
454.006	16738.89
454.223	16783.68
454.44	16826.33
454.657	16878.26
454.874	16922.91
455.091	16965.38
455.308	17017.18
