Data from test1_MAYP1115451__82__10-17-37-242.txt Node

Date: Wed Jun 12 10:17:37 MDT 2024
User: Modes Lab
Spectrometer: MAYP111545
Trigger mode: 0
Integration Time (sec): 8.000000E-3
Scans to average: 5
Electric dark correction enabled: true
Nonlinearity correction enabled: false
Boxcar width: 5
XAxis mode: Wavelengths
Number of Pixels in Spectrum: 2068
>>>>>Begin Spectral Data<<<<<
165.214	163.4
165.449	163.16
165.683	172.31
165.918	181.24
166.152	187.97
166.387	193.57
166.621	125.06
166.856	163.68
167.09	182.5
167.325	205.9
167.559	223.33
167.794	237.95
168.028	245.24
168.263	246.35
168.497	245.9
168.732	246.46
168.966	246.68
169.2	248.39
169.435	249.73
169.669	250.75
169.903	252.48
170.138	253.21
170.372	254.08
170.606	255.64
170.841	257.75
171.075	260.28
171.309	261.37
171.544	262.75
171.778	264.44
172.012	266.88
172.246	268.72
172.48	270.22
172.715	271.62
172.949	273.93
173.183	275.84
173.417	277.08
173.651	277.86
173.885	279.37
174.119	280.57
174.354	281.22
174.588	280.92
174.822	280.77
175.056	281.37
175.29	282.15
175.524	281.81
175.758	282.26
175.992	282.22
176.226	281.53
176.46	282.04
176.694	283.04
176.928	283.86
177.162	285.06
177.396	285.9
177.63	286.59
177.864	286.93
178.097	288.3
178.331	288.42
178.565	289.39
178.799	290.84
179.033	291.61
179.267	291.52
179.5	292.1
179.734	292.77
179.968	293.86
180.202	295.21
180.436	296.66
180.669	297.44
180.903	298.57
181.137	299.17
181.371	299.12
181.604	299.95
181.838	301.28
182.072	301.64
182.305	302.46
182.539	302.88
182.772	303.02
183.006	303.57
183.24	304.99
183.473	308.01
183.707	310.72
183.94	312.77
184.174	313.88
184.408	315.97
184.641	317.28
184.875	317.82
185.108	319.55
185.342	320.39
185.575	321.66
185.808	322.04
186.042	321.44
186.275	321.55
186.509	322.92
186.742	324.48
186.976	325.42
187.209	327.44
187.442	329.52
187.676	330.72
187.909	332.9
188.142	334.42
188.376	336.55
188.609	339.02
188.842	340.21
189.076	342.86
189.309	343.37
189.542	343.72
189.775	345.75
190.009	346.77
190.242	349.17
190.475	351.15
190.708	352.01
190.941	353.61
191.174	354.68
191.408	357.1
191.641	358.46
191.874	360.19
192.107	363.61
192.34	364.88
192.573	367.48
192.806	368.48
193.039	369.32
193.272	371.61
193.505	373.57
193.738	374.26
193.971	375.28
194.204	376.99
194.437	379.08
194.67	379.81
194.903	381.46
195.136	383.04
195.369	385.48
195.602	387.81
195.835	390.06
196.068	392.21
196.301	394.62
196.533	396.97
196.766	398.44
196.999	400.99
197.232	403.39
197.465	405.5
197.698	407.84
197.93	408.97
198.163	411.22
198.396	413.22
198.629	414.02
198.861	416.84
199.094	417.84
199.327	420.37
199.559	422.37
199.792	424.59
200.025	426.79
200.257	429.57
200.49	433.5
200.723	436.28
200.955	437.95
201.188	442.08
201.42	444.57
201.653	447.82
201.886	449.48
202.118	451.39
202.351	453.08
202.583	455.57
202.816	456.81
203.048	457.93
203.281	459.22
203.513	462.44
203.745	464.06
203.978	466.35
204.21	469.7
204.443	472.33
204.675	473.72
204.907	476.12
205.14	477.53
205.372	479.75
205.605	482.19
205.837	484.26
206.069	484.93
206.302	486.21
206.534	488.15
206.766	489.42
206.998	491.15
207.231	494.37
207.463	496.19
207.695	498.62
207.927	500.72
208.159	502.66
208.392	504.24
208.624	506.52
208.856	508.77
209.088	510.02
209.32	511.5
209.552	513.84
209.784	517.06
210.017	518.53
210.249	520.77
210.481	522.42
210.713	524.88
210.945	528.06
211.177	530.66
211.409	532.61
211.641	534.02
211.873	536.44
212.105	539.39
212.337	539.95
212.569	542.86
212.801	545.06
213.033	547.08
213.264	548.52
213.496	550.44
213.728	552.86
213.96	554.97
214.192	558.73
214.424	560.17
214.656	561.59
214.887	563.7
215.119	565.81
215.351	567.52
215.583	569.9
215.815	572.01
216.046	573.37
216.278	574.13
216.51	575.42
216.741	575.72
216.973	577.24
217.205	577.33
217.436	580.15
217.668	581.99
217.9	583.9
218.131	585.13
218.363	586.57
218.595	588.08
218.826	589.15
219.058	590.93
219.289	592.21
219.521	593.82
219.752	596.41
219.984	595.81
220.215	597.06
220.447	597.7
220.678	597.97
220.91	598.41
221.141	597.84
221.373	599.46
221.604	600.86
221.836	603.46
222.067	605.24
222.298	604.62
222.53	606.5
222.761	607.97
222.993	607.32
223.224	608.88
223.455	610.61
223.686	613.06
223.918	614.35
224.149	615.08
224.38	613.5
224.612	612.82
224.843	613.64
225.074	614.37
225.305	614.24
225.536	615.41
225.768	615.79
225.999	616.01
226.23	616.22
226.461	616.35
226.692	616.21
226.923	618.02
227.155	620.37
227.386	621.88
227.617	621.82
227.848	620.15
228.079	622.81
228.31	623.61
228.541	624.28
228.772	624.48
229.003	624.21
229.234	625.53
229.465	626.08
229.696	624.22
229.927	624.04
230.158	623.19
230.389	623.9
230.62	622.17
230.85	622.17
231.081	620.24
231.312	620.37
231.543	620.04
231.774	619.44
232.005	618.73
232.236	618.95
232.466	619.1
232.697	619.7
232.928	620.46
233.159	621.22
233.389	621.21
233.62	622.53
233.851	622.08
234.082	623.24
234.312	623.12
234.543	622.37
234.774	622.39
235.004	622.39
235.235	622.41
235.466	622.17
235.696	621.41
235.927	620.61
236.157	620.46
236.388	620.73
236.618	619.9
236.849	618.97
237.08	620.3
237.31	620.42
237.541	619.9
237.771	620.24
238.002	620.93
238.232	620.32
238.463	620.64
238.693	621.08
238.923	621.19
239.154	620.79
239.384	621.02
239.615	620.06
239.845	618.41
240.075	617.41
240.306	617.1
240.536	616.21
240.766	615.88
240.997	616.55
241.227	615.15
241.457	614.41
241.687	614.95
241.918	614.3
242.148	613.77
242.378	615.39
242.608	615.19
242.839	614.75
243.069	613.84
243.299	612.88
243.529	612.48
243.759	612.84
243.989	611.5
244.22	611.08
244.45	609.48
244.68	609.24
244.91	608.48
245.14	608.44
245.37	607.26
245.6	607.53
245.83	608.53
246.06	606.48
246.29	605.75
246.52	606.46
246.75	605.7
246.98	606.35
247.21	605.3
247.44	604.19
247.67	603.04
247.9	603.3
248.13	602.66
248.359	601.93
248.589	602.13
248.819	600.86
249.049	600.59
249.279	599.53
249.509	598.97
249.738	599.62
249.968	599.06
250.198	598.5
250.428	597.1
250.657	595.55
250.887	594.33
251.117	593.35
251.347	591.86
251.576	590.93
251.806	590.32
252.036	589.08
252.265	587.86
252.495	587.22
252.725	586.99
252.954	588.1
253.184	588.52
253.413	588.01
253.643	587.48
253.873	587.93
254.102	587.3
254.332	585.88
254.561	586.01
254.791	584.79
255.02	584.82
255.25	584.33
255.479	581.39
255.708	580.28
255.938	579.24
256.167	577.93
256.397	576.53
256.626	576.24
256.856	576.52
257.085	575.17
257.314	575.99
257.544	574.53
257.773	574.26
258.002	573.64
258.232	572.82
258.461	573.12
258.69	573.02
258.919	572.61
259.149	570.06
259.378	569.28
259.607	569.1
259.836	566.88
260.065	566.33
260.295	565.81
260.524	567.19
260.753	567.32
260.982	566.33
261.211	565.35
261.44	564.99
261.669	565.48
261.899	565.12
262.128	565.3
262.357	563.55
262.586	562.86
262.815	561.61
263.044	559.32
263.273	561.84
263.502	561.12
263.731	560.22
263.96	559.02
264.189	559.02
264.418	557.55
264.646	555.75
264.875	555.21
265.104	552.97
265.333	552.75
265.562	551.93
265.791	546.64
266.02	544.99
266.249	544.17
266.477	543.53
266.706	541.59
266.935	541.39
267.164	539.81
267.393	540.41
267.621	542.19
267.85	539.93
268.079	540.53
268.307	539.99
268.536	540.13
268.765	540.32
268.993	539.72
269.222	539.17
269.451	538.93
269.679	538.17
269.908	537.46
270.137	536.33
270.365	537.35
270.594	536.95
270.822	538.12
271.051	538.7
271.279	538.39
271.508	538.61
271.736	539.68
271.965	540.44
272.193	541.77
272.422	542.35
272.65	542.93
272.879	542.97
273.107	542.42
273.336	541.33
273.564	539.93
273.792	539.95
274.021	537.84
274.249	536.24
274.477	535.5
274.706	533.44
274.934	531.72
275.162	529.24
275.391	527.33
275.619	526.15
275.847	524.3
276.075	522.3
276.304	520.73
276.532	521.82
276.76	520.13
276.988	517.7
277.216	517.93
277.445	518.48
277.673	517.7
277.901	517.79
278.129	516.46
278.357	517.33
278.585	518.21
278.813	516.22
279.041	515.68
279.269	515.62
279.497	515.68
279.725	514.46
279.954	514.08
280.182	514.24
280.41	513.48
280.637	512.92
280.865	512.22
281.093	511.55
281.321	512.57
281.549	511.61
281.777	511.9
282.005	511.62
282.233	511.68
282.461	509.72
282.689	509.26
282.916	508.97
283.144	508.46
283.372	507.68
283.6	508.33
283.828	506.88
284.055	505.93
284.283	504.82
284.511	504.79
284.739	503.81
284.966	504.33
285.194	504.24
285.422	503.44
285.649	502.88
285.877	501.95
286.105	501.37
286.332	501.97
286.56	502.72
286.788	503.02
287.015	501.22
287.243	500.92
287.47	499.28
287.698	497.81
287.925	497.59
288.153	497.24
288.381	496.21
288.608	494.17
288.836	493.61
289.063	491.77
289.29	490.04
289.518	490.82
289.745	490.17
289.973	489.81
290.2	489.86
290.428	488.42
290.655	488.04
290.882	488.39
291.11	487.5
291.337	486.28
291.564	486.04
291.792	486.13
292.019	485.12
292.246	486.24
292.473	484.86
292.701	483.7
292.928	483.44
293.155	484.08
293.382	483.19
293.61	482.39
293.837	482.72
294.064	482.52
294.291	481.84
294.518	480.79
294.745	479.15
294.972	479.42
295.2	479.26
295.427	478.48
295.654	476.68
295.881	476.12
296.108	475.28
296.335	473.79
296.562	473.79
296.789	472.17
297.016	471.48
297.243	471.02
297.47	471.62
297.697	470.75
297.924	470.19
298.151	468.88
298.378	468.44
298.604	469.35
298.831	469.62
299.058	468.01
299.285	468.32
299.512	468.32
299.739	468.1
299.966	467.04
300.192	466.68
300.419	466.42
300.646	466.13
300.873	465.12
301.099	464.55
301.326	463.79
301.553	463.97
301.78	465.62
302.006	464.75
302.233	462.79
302.46	462.77
302.686	462.93
302.913	462.9
303.14	462.92
303.366	462.52
303.593	461.93
303.819	461.04
304.046	459.95
304.272	458.33
304.499	458.64
304.725	459.26
304.952	458.28
305.179	457.88
305.405	458.48
305.631	458.57
305.858	458.79
306.084	457.84
306.311	457.3
306.537	458.08
306.764	457.9
306.99	457.04
307.216	456.92
307.443	456.39
307.669	456.22
307.895	454.53
308.122	454.66
308.348	454.06
308.574	453.62
308.801	454.81
309.027	454.24
309.253	453.32
309.479	454.17
309.706	453.26
309.932	453.62
310.158	452.21
310.384	452.46
310.61	452.97
310.837	453.19
311.063	454.35
311.289	453.21
311.515	453.61
311.741	453.57
311.967	452.42
312.193	453.12
312.419	452.92
312.645	453.88
312.871	452.62
313.097	452.02
313.323	452.01
313.549	451.7
313.775	452.01
314.001	453.26
314.227	453.62
314.453	454.19
314.679	453.9
314.905	453.99
315.131	455.15
315.357	456.48
315.583	455.88
315.809	456.22
316.034	457.66
316.26	458.15
316.486	456.92
316.712	457.5
316.938	457.41
317.163	459.35
317.389	459.72
317.615	459.17
317.841	459.46
318.066	461.08
318.292	462.48
318.518	462.06
318.743	461.95
318.969	462.97
319.195	463.32
319.42	463.37
319.646	463.01
319.872	463.93
320.097	464.37
320.323	465.1
320.548	466.08
320.774	466.66
320.999	468.21
321.225	469.06
321.45	469.79
321.676	472.21
321.901	474.02
322.127	475.52
322.352	476.24
322.578	478.02
322.803	480.52
323.029	481.86
323.254	483.37
323.479	484.1
323.705	486.59
323.93	487.24
324.155	488.72
324.381	490.46
324.606	493.02
324.831	495.57
325.057	498.06
325.282	500.17
325.507	501.72
325.732	503.72
325.958	505.84
326.183	508.61
326.408	511.97
326.633	513.68
326.858	516.5
327.084	518.42
327.309	520.01
327.534	522.12
327.759	523.32
327.984	526.53
328.209	529.46
328.434	532.93
328.659	535.41
328.884	538.3
329.109	540.7
329.334	543.88
329.559	547.1
329.784	551.17
330.009	553.9
330.234	558.17
330.459	560.88
330.684	564.1
330.909	567.39
331.134	570.99
331.359	575.19
331.584	579.99
331.809	584.1
332.034	588.7
332.259	593.02
332.483	597.13
332.708	601.46
332.933	605.95
333.158	610.48
333.383	615.04
333.607	619.57
333.832	624.52
334.057	628.88
334.282	633.3
334.506	637.81
334.731	642.39
334.956	648.02
335.18	653.55
335.405	659.13
335.63	664.7
335.854	669.77
336.079	675.82
336.303	680.33
336.528	686.52
336.753	692.68
336.977	699.3
337.202	705.55
337.426	712.17
337.651	718.84
337.875	725.35
338.1	731.92
338.324	739.73
338.549	745.41
338.773	753.15
338.997	758.81
339.222	765.97
339.446	772.08
339.671	780.88
339.895	788.57
340.119	795.73
340.344	803.39
340.568	810.1
340.792	817.55
341.017	826.95
341.241	834.37
341.465	844.7
341.689	852.73
341.914	860.61
342.138	867.01
342.362	875.72
342.586	885.01
342.811	892.61
343.035	903.61
343.259	912.26
343.483	920.04
343.707	926.48
343.931	936.15
344.155	945.33
344.38	955.72
344.604	966.01
344.828	974.86
345.052	981.53
345.276	991.62
345.5	998.93
345.724	1007.92
345.948	1016.61
346.172	1029.55
346.396	1036.55
346.62	1047.61
346.844	1056.32
347.068	1066.41
347.292	1074.81
347.515	1087.9
347.739	1100.77
347.963	1109.59
348.187	1118.26
348.411	1129.55
348.635	1139.75
348.859	1150.02
349.082	1160.1
349.306	1170.3
349.53	1180.19
349.754	1192.84
349.977	1201.66
350.201	1209.37
350.425	1221.9
350.649	1234.73
350.872	1245.24
351.096	1256.06
351.32	1268.3
351.543	1279.13
351.767	1290.92
351.99	1303.06
352.214	1313.7
352.438	1323.77
352.661	1335.21
352.885	1348.57
353.108	1360.41
353.332	1372.01
353.555	1383.68
353.779	1394.66
354.002	1405.1
354.226	1416.53
354.449	1427.22
354.673	1440.15
354.896	1454.15
355.12	1466.02
355.343	1476.79
355.566	1487.53
355.79	1499.3
356.013	1512.26
356.237	1526.21
356.46	1540.33
356.683	1552.37
356.907	1565.21
357.13	1577.39
357.353	1588.41
357.576	1601.64
357.8	1614.02
358.023	1626.93
358.246	1640.86
358.469	1652.37
358.693	1664.62
358.916	1675.97
359.139	1691.33
359.362	1702.84
359.585	1715.21
359.808	1729.9
360.031	1743.84
360.255	1758.06
360.478	1771.75
360.701	1785.39
360.924	1799.32
361.147	1811.73
361.37	1826.61
361.593	1838.7
361.816	1853.95
362.039	1867.22
362.262	1879.15
362.485	1890.5
362.708	1902.3
362.931	1915.17
363.154	1925.79
363.377	1939.28
363.599	1951.64
363.822	1963.22
364.045	1975.77
364.268	1987.24
364.491	1999.66
364.714	2015.52
364.936	2031.64
365.159	2046.61
365.382	2060.48
365.605	2077.52
365.828	2093.28
366.05	2106.9
366.273	2122.92
366.496	2137.72
366.718	2154.35
366.941	2172.08
367.164	2188.88
367.386	2203.62
367.609	2220.86
367.832	2236.61
368.054	2253.01
368.277	2268.19
368.5	2286.42
368.722	2302.77
368.945	2319.92
369.167	2335.33
369.39	2350.46
369.612	2364.02
369.835	2381.13
370.057	2397.39
370.28	2415.48
370.502	2431.13
370.725	2446.3
370.947	2463.57
371.169	2480.24
371.392	2495.62
371.614	2512.53
371.837	2528.66
372.059	2545.53
372.281	2563.06
372.504	2578.93
372.726	2594.79
372.948	2613.95
373.171	2631.06
373.393	2646.53
373.615	2663.57
373.837	2683.02
374.06	2701.06
374.282	2718.53
374.504	2735.66
374.726	2752.41
374.948	2770.21
375.17	2788.48
375.393	2807.37
375.615	2826.53
375.837	2847.57
376.059	2868.99
376.281	2887.3
376.503	2906.32
376.725	2926.35
376.947	2948.48
377.169	2970.7
377.391	2987.84
377.613	3010.62
377.835	3029.84
378.057	3051.84
378.279	3073.68
378.501	3092.55
378.723	3115.19
378.945	3136.08
379.167	3158.37
379.389	3180.86
379.611	3201.59
379.833	3227.77
380.054	3249.32
380.276	3272.73
380.498	3296.92
380.72	3318.64
380.942	3343.12
381.163	3365.33
381.385	3390.35
381.607	3412.12
381.829	3434.52
382.05	3458.28
382.272	3483.01
382.494	3507.57
382.716	3532.86
382.937	3555.42
383.159	3582.92
383.381	3606.64
383.602	3632.81
383.824	3657.73
384.045	3688.33
384.267	3715.15
384.488	3742.32
384.71	3769.33
384.932	3795.82
385.153	3822.08
385.375	3850.73
385.596	3877.48
385.818	3903.79
386.039	3930.19
386.261	3957.95
386.482	3982.57
386.703	4009.62
386.925	4036.73
387.146	4063.3
387.368	4089.35
387.589	4114.73
387.81	4141.86
388.032	4168.44
388.253	4198.33
388.474	4229.21
388.696	4257.35
388.917	4286.28
389.138	4315.13
389.359	4340.79
389.581	4370.61
389.802	4403.86
390.023	4434.02
390.244	4464.61
390.465	4493.99
390.687	4524.82
390.908	4552.99
391.129	4582.48
391.35	4615.48
391.571	4646.88
391.792	4683.64
392.013	4711.84
392.234	4741.26
392.455	4773.32
392.677	4804.39
392.898	4834.44
393.119	4865.21
393.34	4898.57
393.561	4932.33
393.782	4962.35
394.003	4993.3
394.223	5021.32
394.444	5057.81
394.665	5088.53
394.886	5120.95
395.107	5154.66
395.328	5187.81
395.549	5222.41
395.77	5254.55
395.99	5289.52
396.211	5322.19
396.432	5358.5
396.653	5391.32
396.874	5423.53
397.094	5458.61
397.315	5492.46
397.536	5525.3
397.757	5560.12
397.977	5591.55
398.198	5624.86
398.419	5659.17
398.639	5693.75
398.86	5728.72
399.081	5763.73
399.301	5794.62
399.522	5828.84
399.742	5865.79
399.963	5901.57
400.184	5933.17
400.404	5964.48
400.625	5997.64
400.845	6029.21
401.066	6062.93
401.286	6091.72
401.507	6127.48
401.727	6163.33
401.948	6197.97
402.168	6228.53
402.388	6259.26
402.609	6295.01
402.829	6332.59
403.05	6368.01
403.27	6400.35
403.49	6434.82
403.711	6472.92
403.931	6507.88
404.151	6541.44
404.372	6575.15
404.592	6610.57
404.812	6646.17
405.032	6681.32
405.253	6712.77
405.473	6747.1
405.693	6785.28
405.913	6819.97
406.133	6852.42
406.353	6887.55
406.574	6923.1
406.794	6957.92
407.014	6994.68
407.234	7029.82
407.454	7063.39
407.674	7103.42
407.894	7140.57
408.114	7175.26
408.334	7209.72
408.554	7252.37
408.774	7282.61
408.994	7318.77
409.214	7360.35
409.434	7394.84
409.654	7432.81
409.874	7473.57
410.094	7510.48
410.314	7544.7
410.534	7580.82
410.754	7619.99
410.974	7652.68
411.193	7697.17
411.413	7733.42
411.633	7766.53
411.853	7807.35
412.073	7846.62
412.292	7880.21
412.512	7915.04
412.732	7954.84
412.952	7997.5
413.171	8031.99
413.391	8073.66
413.611	8111.84
413.831	8156.82
414.05	8198.77
414.27	8236.52
414.489	8278.41
414.709	8325.81
414.929	8370.97
415.148	8413.82
415.368	8457.12
415.587	8506.53
415.807	8546.59
416.026	8586.92
416.246	8626.02
416.465	8668.46
416.685	8714.42
416.904	8757.02
417.124	8800.42
417.343	8842.1
417.563	8884.7
417.782	8922.93
418.002	8972.82
418.221	9022.86
418.44	9068.59
418.66	9113.61
418.879	9155.15
419.098	9201.22
419.318	9246.26
419.537	9290.12
419.756	9341.64
419.976	9389.33
420.195	9435.9
420.414	9474.66
420.633	9515.35
420.853	9560.06
421.072	9607.75
421.291	9655.73
421.51	9696.5
421.729	9734.81
421.948	9781.24
422.168	9819.39
422.387	9862.7
422.606	9902.72
422.825	9941.21
423.044	9984.75
423.263	10028.19
423.482	10069.01
423.701	10114.64
423.92	10159.15
424.139	10208.7
424.358	10251.55
424.577	10296.77
424.796	10340.39
425.015	10394.15
425.234	10448.12
425.453	10497.3
425.672	10541.72
425.891	10587.93
426.11	10633.46
426.328	10681.7
426.547	10727.35
426.766	10775.41
426.985	10820.17
427.204	10870.1
427.422	10917.82
427.641	10962.72
427.86	11003.41
428.079	11056.66
428.297	11107.44
428.516	11154.33
428.735	11201.55
428.954	11250.84
429.172	11302.72
429.391	11353.24
429.61	11401.17
429.828	11443.75
430.047	11488.44
430.265	11533.81
430.484	11574.19
430.703	11617.41
430.921	11662.12
431.14	11710.1
431.358	11752.26
431.577	11788.02
431.795	11833.33
432.014	11878.62
432.232	11932.26
432.451	11985.59
432.669	12040.79
432.887	12089.17
433.106	12137.88
433.324	12192.52
433.543	12242.44
433.761	12292.39
433.979	12346.15
434.198	12398.06
434.416	12443.52
434.634	12485.53
434.853	12523.73
435.071	12568.75
435.289	12615.08
435.507	12660.92
435.726	12706.84
435.944	12748.41
436.162	12798.33
436.38	12842.06
436.598	12885.75
436.817	12930.01
437.035	12975.53
437.253	13023.72
437.471	13071.53
437.689	13121.24
437.907	13169.41
438.125	13213.46
438.343	13258.44
438.561	13305.73
438.78	13354.99
438.998	13404.33
439.216	13457.46
439.434	13509.21
439.652	13556.15
439.869	13599.41
440.087	13644.26
440.305	13694.37
440.523	13736.79
440.741	13786.75
440.959	13832.66
441.177	13877.62
441.395	13922.61
441.613	13969.24
441.831	14017.48
442.048	14062.12
442.266	14113.86
442.484	14167.22
442.702	14214.08
442.919	14269.86
443.137	14328.39
443.355	14373.86
443.573	14427.37
443.79	14472.44
444.008	14521.73
444.226	14569.41
444.443	14624.15
444.661	14669.39
444.879	14715.3
445.096	14769.17
445.314	14816.99
445.532	14857.33
445.749	14911.04
445.967	14957.37
446.184	15012.79
446.402	15059.12
446.619	15103.61
446.837	15147.15
447.054	15195.06
447.272	15243.55
447.489	15282.82
447.707	15327.08
447.924	15372.1
448.141	15416.53
448.359	15458.86
448.576	15510.86
448.794	15562.93
449.011	15608.92
449.228	15663.88
449.446	15714.9
449.663	15762.37
449.88	15808.37
450.098	15862.17
450.315	15912.13
450.532	15961.99
450.749	16013.32
450.967	16058.24
451.184	16099.24
451.401	16151.95
451.618	16199.53
451.835	16244.28
452.052	16292.22
452.27	16346.04
452.487	16383.42
452.704	16429.59
452.921	16468.93
453.138	16515.42
453.355	16558.32
453.572	16610.12
453.789	16656.81
454.006	16702.35
454.223	16753.21
454.44	16800.92
