Data from test1_MAYP1115451__56__10-17-28-033.txt Node

Date: Wed Jun 12 10:17:28 MDT 2024
User: Modes Lab
Spectrometer: MAYP111545
Trigger mode: 0
Integration Time (sec): 8.000000E-3
Scans to average: 5
Electric dark correction enabled: true
Nonlinearity correction enabled: false
Boxcar width: 5
XAxis mode: Wavelengths
Number of Pixels in Spectrum: 2068
>>>>>Begin Spectral Data<<<<<
165.214	164.2
165.449	163.22
165.683	171.88
165.918	181.07
166.152	187.21
166.387	192.72
166.621	124.46
166.856	163.93
167.09	182.86
167.325	206.41
167.559	222.32
167.794	235.81
168.028	243.66
168.263	245.41
168.497	244.52
168.732	245.95
168.966	246.44
169.2	248.64
169.435	249.62
169.669	250.35
169.903	251.75
170.138	254.1
170.372	255.59
170.606	257.48
170.841	258.53
171.075	260.93
171.309	261.28
171.544	263.12
171.778	264.26
172.012	265.7
172.246	267.44
172.48	268.64
172.715	270.17
172.949	272.24
173.183	273.93
173.417	275.92
173.651	277.17
173.885	279.3
174.119	280.62
174.354	281.22
174.588	281.59
174.822	282.5
175.056	282.41
175.29	282.13
175.524	281.3
175.758	280.88
175.992	281.06
176.226	281.12
176.46	281.26
176.694	281.35
176.928	282.82
177.162	283.77
177.396	284.52
177.63	285.73
177.864	286.39
178.097	287.42
178.331	289.13
178.565	290.21
178.799	290.86
179.033	291.61
179.267	291.17
179.5	290.28
179.734	290.62
179.968	291.42
180.202	293.04
180.436	294.22
180.669	296.62
180.903	296.86
181.137	296.01
181.371	298.01
181.604	298.77
181.838	300.84
182.072	303.3
182.305	303.92
182.539	304.55
182.772	305.7
183.006	307.73
183.24	307.3
183.473	311.57
183.707	313.92
183.94	315.41
184.174	317.1
184.408	318.26
184.641	318.88
184.875	320.81
185.108	322.75
185.342	323.57
185.575	324.22
185.808	326.28
186.042	324.57
186.275	325.82
186.509	326.44
186.742	327.53
186.976	329.44
187.209	330.13
187.442	330.99
187.676	331.68
187.909	332.81
188.142	333.7
188.376	334.82
188.609	336.42
188.842	339.13
189.076	339.72
189.309	341.22
189.542	343.02
189.775	344.86
190.009	347.01
190.242	348.9
190.475	350.06
190.708	352.9
190.941	354.75
191.174	356.17
191.408	356.46
191.641	358.21
191.874	359.79
192.107	361.06
192.34	362.44
192.573	364.35
192.806	365.84
193.039	367.86
193.272	368.73
193.505	370.52
193.738	373.21
193.971	375.24
194.204	378.04
194.437	380.02
194.67	381.55
194.903	383.48
195.136	384.7
195.369	386.28
195.602	389.08
195.835	391.26
196.068	393.79
196.301	394.17
196.533	396.02
196.766	396.82
196.999	398.24
197.232	400.9
197.465	402.88
197.698	405.97
197.93	408.52
198.163	410.59
198.396	412.5
198.629	414.33
198.861	417.79
199.094	420.32
199.327	423.3
199.559	425.82
199.792	428.02
200.025	430.46
200.257	430.66
200.49	432.41
200.723	434.04
200.955	435.46
201.188	437.37
201.42	439.75
201.653	441.9
201.886	443.62
202.118	446.19
202.351	447.77
202.583	450.21
202.816	452.72
203.048	455.04
203.281	455.82
203.513	458.41
203.745	460.55
203.978	460.68
204.21	462.75
204.443	465.12
204.675	466.62
204.907	468.77
205.14	470.61
205.372	473.79
205.605	475.73
205.837	479.22
206.069	481.41
206.302	483.79
206.534	487.48
206.766	489.1
206.998	491.21
207.231	494.01
207.463	495.35
207.695	498.57
207.927	500.24
208.159	502.79
208.392	504.66
208.624	506.72
208.856	508.5
209.088	509.21
209.32	510.72
209.552	513.21
209.784	514.77
210.017	517.95
210.249	519.33
210.481	521.95
210.713	523.35
210.945	526.61
211.177	529.04
211.409	531.01
211.641	533.66
211.873	537.15
212.105	538.44
212.337	539.81
212.569	540.59
212.801	543.42
213.033	545.73
213.264	548.42
213.496	548.92
213.728	550.53
213.96	552.72
214.192	555.26
214.424	556.52
214.656	558.88
214.887	561.61
215.119	564.66
215.351	565.22
215.583	566.02
215.815	568.28
216.046	569.82
216.278	572.32
216.51	573.32
216.741	574.01
216.973	575.55
217.205	576.44
217.436	578.55
217.668	581.41
217.9	582.77
218.131	584.57
218.363	585.15
218.595	586.79
218.826	587.59
219.058	589.48
219.289	591.41
219.521	591.95
219.752	593.12
219.984	593.06
220.215	592.55
220.447	593.73
220.678	593.02
220.91	594.26
221.141	594.12
221.373	595.02
221.604	594.93
221.836	596.15
222.067	598.13
222.298	598.61
222.53	600.3
222.761	601.28
222.993	602.3
223.224	605.17
223.455	606.79
223.686	608.73
223.918	608.73
224.149	611.28
224.38	611.1
224.612	611.7
224.843	613.93
225.074	613.35
225.305	613.01
225.536	613.26
225.768	613.35
225.999	612.64
226.23	613.59
226.461	614.37
226.692	614.48
226.923	615.1
227.155	617.12
227.386	616.95
227.617	617.46
227.848	618.61
228.079	620.82
228.31	621.72
228.541	622.44
228.772	622.93
229.003	623.12
229.234	622.7
229.465	623.48
229.696	621.57
229.927	620.88
230.158	622.39
230.389	621.08
230.62	621.66
230.85	622.95
231.081	623.06
231.312	622.82
231.543	623.32
231.774	623.81
232.005	623.61
232.236	624.41
232.466	624.44
232.697	622.95
232.928	624.21
233.159	622.81
233.389	621.13
233.62	622.79
233.851	622.92
234.082	622.39
234.312	621.81
234.543	621.48
234.774	620.61
235.004	621.72
235.235	622.86
235.466	622.24
235.696	621.66
235.927	622.68
236.157	620.48
236.388	620.01
236.618	621.32
236.849	621.92
237.08	622.86
237.31	624.01
237.541	621.86
237.771	621.48
238.002	621.68
238.232	621.68
238.463	620.04
238.693	621.39
238.923	621.84
239.154	620.95
239.384	620.52
239.615	618.79
239.845	617.06
240.075	618.06
240.306	617.59
240.536	618.39
240.766	618.22
240.997	618.33
241.227	616.39
241.457	614.75
241.687	614.26
241.918	613.26
242.148	612.7
242.378	613.06
242.608	612.5
242.839	612.33
243.069	611.61
243.299	610.55
243.529	611.24
243.759	610.79
243.989	610.9
244.22	609.42
244.45	609.24
244.68	609.59
244.91	608.46
245.14	608.32
245.37	607.13
245.6	606.61
245.83	606.06
246.06	604.41
246.29	604.48
246.52	604.42
246.75	604.68
246.98	603.7
247.21	602.73
247.44	602.42
247.67	601.5
247.9	601.32
248.13	600.55
248.359	600.66
248.589	600.81
248.819	600.88
249.049	599.32
249.279	599.41
249.509	599.13
249.738	598.99
249.968	598.75
250.198	597.33
250.428	597.33
250.657	595.92
250.887	595.42
251.117	594.53
251.347	593.02
251.576	592.73
251.806	591.5
252.036	591.15
252.265	590.86
252.495	589.21
252.725	590.75
252.954	590.15
253.184	589.26
253.413	588.37
253.643	586.93
253.873	586.3
254.102	586.53
254.332	585.93
254.561	586.04
254.791	586.33
255.02	588.15
255.25	587.19
255.479	585.77
255.708	585.77
255.938	586.02
256.167	585.82
256.397	584.48
256.626	583.3
256.856	583.3
257.085	581.32
257.314	579.39
257.544	576.66
257.773	576.06
258.002	575.21
258.232	574.3
258.461	572.93
258.69	572.39
258.919	571.93
259.149	571.44
259.378	570.1
259.607	568.81
259.836	569.53
260.065	569.37
260.295	569.22
260.524	568.35
260.753	567.84
260.982	566.75
261.211	566.28
261.44	566.72
261.669	565.79
261.899	565.22
262.128	565.61
262.357	563.06
262.586	562.53
262.815	560.12
263.044	560.53
263.273	562.22
263.502	560.37
263.731	559.19
263.96	557.24
264.189	556.62
264.418	555.13
264.646	555.21
264.875	553.95
265.104	552.88
265.333	551.86
265.562	549.93
265.791	546.5
266.02	545.7
266.249	545.01
266.477	544.01
266.706	542.53
266.935	541.79
267.164	539.77
267.393	539.52
267.621	539.02
267.85	539.66
268.079	541.01
268.307	540.99
268.536	542.99
268.765	542.77
268.993	544.21
269.222	543.86
269.451	543.57
269.679	542.81
269.908	543.53
270.137	543.08
270.365	541.97
270.594	540.82
270.822	540.81
271.051	539.5
271.279	540.26
271.508	540.84
271.736	542.5
271.965	543.64
272.193	544.9
272.422	544.44
272.65	544.5
272.879	544.52
273.107	543.35
273.336	542.46
273.564	541.41
273.792	539.15
274.021	536.82
274.249	533.06
274.477	531.68
274.706	530.92
274.934	528.64
275.162	526.95
275.391	525.52
275.619	524.92
275.847	525.08
276.075	524.95
276.304	524.13
276.532	523.22
276.76	523.55
276.988	522.59
277.216	520.75
277.445	522.04
277.673	521.44
277.901	521.66
278.129	520.21
278.357	518.72
278.585	518.04
278.813	517.66
279.041	517.79
279.269	518.02
279.497	517.61
279.725	517.04
279.954	515.95
280.182	515.62
280.41	514.72
280.637	515.86
280.865	515.35
281.093	513.79
281.321	513.32
281.549	512.44
281.777	510.32
282.005	510.17
282.233	510.33
282.461	509.52
282.689	507.99
282.916	506.81
283.144	505.81
283.372	504.81
283.6	505.41
283.828	504.79
284.055	503.48
284.283	504.28
284.511	503.28
284.739	501.53
284.966	501.24
285.194	501.81
285.422	501.33
285.649	500.62
285.877	499.97
286.105	498.46
286.332	499.04
286.56	499.13
286.788	498.3
287.015	497.17
287.243	497.46
287.47	496.13
287.698	495.21
287.925	494.77
288.153	494.9
288.381	494.53
288.608	494.52
288.836	493.08
289.063	492.41
289.29	490.66
289.518	491.04
289.745	489.97
289.973	489.9
290.2	490.84
290.428	490.15
290.655	489.04
290.882	489.55
291.11	489.08
291.337	488.55
291.564	488.08
291.792	488.81
292.019	487.33
292.246	487.41
292.473	487.13
292.701	485.59
292.928	485.1
293.155	484.62
293.382	483.22
293.61	482.64
293.837	481.7
294.064	480.79
294.291	479.81
294.518	479.26
294.745	478.3
294.972	477.28
295.2	476.81
295.427	477.72
295.654	476.86
295.881	475.86
296.108	475.73
296.335	475.44
296.562	474.41
296.789	473.84
297.016	474.55
297.243	474.17
297.47	473.46
297.697	472.64
297.924	470.57
298.151	470.73
298.378	470.57
298.604	468.55
298.831	466.66
299.058	466.22
299.285	466.28
299.512	465.33
299.739	464.97
299.966	465.37
300.192	464.86
300.419	465.04
300.646	464.22
300.873	462.5
301.099	463.12
301.326	464.21
301.553	464.62
301.78	465.22
302.006	464.73
302.233	464.42
302.46	463.22
302.686	462.22
302.913	461.81
303.14	460.24
303.366	461.01
303.593	461.17
303.819	460.02
304.046	459.44
304.272	458.48
304.499	458.77
304.725	458.39
304.952	458.57
305.179	458.28
305.405	458.3
305.631	458.44
305.858	458.42
306.084	456.42
306.311	458.02
306.537	457.15
306.764	455.72
306.99	455.62
307.216	455.68
307.443	455.5
307.669	456.08
307.895	455.86
308.122	456.17
308.348	455.93
308.574	456.57
308.801	455.37
309.027	456.3
309.253	457.57
309.479	455.81
309.706	455.73
309.932	455.21
310.158	454.82
310.384	454.04
310.61	454.24
310.837	453.42
311.063	452.24
311.289	450.62
311.515	449.9
311.741	448.21
311.967	448.62
312.193	447.92
312.419	448.22
312.645	447.02
312.871	447.13
313.097	446.33
313.323	446.75
313.549	448.55
313.775	450.08
314.001	449.32
314.227	449.73
314.453	450.35
314.679	451.01
314.905	450.64
315.131	451.79
315.357	451.99
315.583	452.08
315.809	452.86
316.034	452.84
316.26	453.82
316.486	455.5
316.712	456.73
316.938	457.26
317.163	456.66
317.389	457.37
317.615	458.84
317.841	459.21
318.066	460.77
318.292	460.5
318.518	460.81
318.743	460.57
318.969	460.81
319.195	461.08
319.42	460.88
319.646	462.84
319.872	463.52
320.097	463.93
320.323	465.44
320.548	466.19
320.774	467.7
320.999	469.42
321.225	470.12
321.45	471.79
321.676	472.66
321.901	475.44
322.127	476.06
322.352	478.21
322.578	479.3
322.803	480.9
323.029	481.81
323.254	484.35
323.479	486.28
323.705	487.84
323.93	488.24
324.155	490.99
324.381	491.93
324.606	495.3
324.831	496.95
325.057	497.81
325.282	499.97
325.507	501.1
325.732	502.15
325.958	503.75
326.183	506.46
326.408	509.59
326.633	512.39
326.858	514.93
327.084	516.52
327.309	518.82
327.534	522.75
327.759	525.64
327.984	529.37
328.209	532.46
328.434	535.66
328.659	538.52
328.884	542.28
329.109	545.13
329.334	548.68
329.559	551.1
329.784	554.17
330.009	557.64
330.234	559.99
330.459	563.06
330.684	566.77
330.909	570.19
331.134	574.33
331.359	576.68
331.584	580.37
331.809	583.33
332.034	588.24
332.259	593.33
332.483	596.93
332.708	601.44
332.933	606.01
333.158	610.7
333.383	615.52
333.607	621.15
333.832	627.12
334.057	631.77
334.282	637.62
334.506	642.02
334.731	646.41
334.956	653.02
335.18	658.08
335.405	664.26
335.63	669.68
335.854	675.13
336.079	680.72
336.303	685.93
336.528	692.28
336.753	697.39
336.977	704.15
337.202	710.99
337.426	716.99
337.651	724.57
337.875	730.46
338.1	737.1
338.324	744.32
338.549	749.66
338.773	756.88
338.997	762.39
339.222	770.22
339.446	776.22
339.671	782.46
339.895	788.55
340.119	793.61
340.344	802.52
340.568	811.1
340.792	817.79
341.017	825.35
341.241	832.5
341.465	840.28
341.689	846.81
341.914	856.42
342.138	864.86
342.362	873.08
342.586	881.77
342.811	888.32
343.035	894.95
343.259	903.72
343.483	911.24
343.707	920.73
343.931	930.73
344.155	940.84
344.38	950.22
344.604	959.35
344.828	969.33
345.052	979.57
345.276	990.82
345.5	1001.04
345.724	1010.3
345.948	1022.1
346.172	1031.73
346.396	1041.99
346.62	1052.55
346.844	1061.17
347.068	1069.57
347.292	1080.01
347.515	1090.73
347.739	1102.75
347.963	1112.44
348.187	1123.02
348.411	1131.97
348.635	1140.42
348.859	1150.24
349.082	1159.33
349.306	1170.33
349.53	1181.93
349.754	1191.68
349.977	1200.7
350.201	1208.06
350.425	1218.39
350.649	1230.92
350.872	1244.12
351.096	1257.62
351.32	1268.42
351.543	1280.44
351.767	1293.12
351.99	1305.06
352.214	1316.48
352.438	1328.19
352.661	1339.79
352.885	1352.28
353.108	1362.08
353.332	1372.82
353.555	1383.59
353.779	1394.81
354.002	1406.79
354.226	1416.22
354.449	1428.1
354.673	1439.92
354.896	1455.08
355.12	1466.77
355.343	1479.01
355.566	1490.92
355.79	1502.35
356.013	1515.77
356.237	1528.08
356.46	1538.86
356.683	1552.35
356.907	1563.79
357.13	1575.28
357.353	1586.48
357.576	1597.48
357.8	1608.12
358.023	1621.7
358.246	1634.53
358.469	1646.57
358.693	1659.62
358.916	1673.13
359.139	1686.39
359.362	1699.22
359.585	1714.82
359.808	1726.32
360.031	1740.73
360.255	1754.06
360.478	1768.19
360.701	1783.13
360.924	1796.48
361.147	1809.59
361.37	1824.81
361.593	1836.5
361.816	1850.82
362.039	1864.57
362.262	1879.28
362.485	1893.41
362.708	1908.22
362.931	1920.17
363.154	1931.46
363.377	1942.95
363.599	1957.92
363.822	1969.77
364.045	1984.99
364.268	1998.59
364.491	2011.55
364.714	2026.88
364.936	2042.88
365.159	2057.28
365.382	2070.17
365.605	2085.24
365.828	2104.08
366.05	2119.48
366.273	2134.72
366.496	2151.04
366.718	2169.41
366.941	2183.59
367.164	2196.52
367.386	2209.59
367.609	2227.28
367.832	2245.08
368.054	2258.3
368.277	2270.15
368.5	2284.75
368.722	2297.75
368.945	2311.53
369.167	2325.06
369.39	2340.81
369.612	2357.93
369.835	2372.82
370.057	2388.57
370.28	2405.04
370.502	2423.77
370.725	2444.44
370.947	2460.82
371.169	2480.1
371.392	2497.62
371.614	2512.66
371.837	2530.7
372.059	2547.61
372.281	2566.17
372.504	2583.15
372.726	2599.7
372.948	2615.66
373.171	2632.22
373.393	2650.46
373.615	2666.59
373.837	2681.73
374.06	2700.5
374.282	2716.77
374.504	2735.01
374.726	2753.61
374.948	2768.9
375.17	2787.81
375.393	2808.35
375.615	2824.33
375.837	2842.97
376.059	2863.72
376.281	2884.61
376.503	2903.64
376.725	2926.57
376.947	2944.77
377.169	2966.68
377.391	2989.26
377.613	3008.88
377.835	3029.82
378.057	3051.37
378.279	3072.19
378.501	3092.7
378.723	3115.3
378.945	3136.32
379.167	3157.77
379.389	3181.86
379.611	3202.3
379.833	3224.28
380.054	3249.24
380.276	3273.46
380.498	3299.55
380.72	3326.62
380.942	3351.75
381.163	3373.88
381.385	3401.08
381.607	3424.68
381.829	3448.9
382.05	3475.59
382.272	3501.77
382.494	3524.06
382.716	3546.57
382.937	3569.02
383.159	3591.7
383.381	3617.3
383.602	3644.32
383.824	3670.17
384.045	3695.86
384.267	3721.52
384.488	3745.35
384.71	3770.35
384.932	3795.93
385.153	3823.17
385.375	3850.52
385.596	3875.48
385.818	3903.08
386.039	3929.32
386.261	3956.75
386.482	3984.48
386.703	4009.88
386.925	4036.13
387.146	4062.24
387.368	4093.64
387.589	4121.77
387.81	4147.35
388.032	4172.68
388.253	4201.06
388.474	4230.3
388.696	4256.9
388.917	4285.26
389.138	4315.08
389.359	4345.61
389.581	4379.3
389.802	4408.79
390.023	4440.55
390.244	4467.84
390.465	4500.72
390.687	4530.68
390.908	4561.46
391.129	4593.12
391.35	4621.24
391.571	4653.12
391.792	4685.93
392.013	4710.44
392.234	4738.84
392.455	4767.77
392.677	4804.04
392.898	4834.95
393.119	4866.19
393.34	4896.73
393.561	4929.5
393.782	4963.64
394.003	4996.39
394.223	5029.57
394.444	5063.68
394.665	5094.9
394.886	5126.24
395.107	5156.39
395.328	5191.48
395.549	5224.52
395.77	5258.57
395.99	5289.81
396.211	5321.1
396.432	5353.35
396.653	5383.3
396.874	5417.26
397.094	5450.02
397.315	5483.72
397.536	5520.5
397.757	5555.73
397.977	5589.77
398.198	5624.13
398.419	5660.35
398.639	5694.02
398.86	5727.72
399.081	5759.62
399.301	5797.52
399.522	5833.64
399.742	5867.82
399.963	5900.24
400.184	5932.3
400.404	5965.02
400.625	5997.52
400.845	6031.32
401.066	6065.06
401.286	6099.84
401.507	6137.53
401.727	6167.81
401.948	6203.3
402.168	6238.26
402.388	6275.66
402.609	6307.26
402.829	6342.35
403.05	6376.06
403.27	6408.48
403.49	6447.95
403.711	6480.57
403.931	6514.48
404.151	6549.06
404.372	6578.24
404.592	6610.08
404.812	6640.9
405.032	6679.1
405.253	6709.79
405.473	6748.06
405.693	6780.39
405.913	6810.48
406.133	6845.46
406.353	6879.13
406.574	6918.72
406.794	6962.02
407.014	6998.13
407.234	7032.22
407.454	7065.93
407.674	7107.01
407.894	7139.7
408.114	7177.81
408.334	7214.22
408.554	7251.06
408.774	7289.75
408.994	7320.64
409.214	7354.93
409.434	7389.66
409.654	7428.61
409.874	7465.86
410.094	7502.48
410.314	7543.02
410.534	7579.81
410.754	7618.7
410.974	7655.66
411.193	7692.3
411.413	7735.32
411.633	7770.08
411.853	7812.81
412.073	7853.48
412.292	7892.44
412.512	7930.97
412.732	7970.84
412.952	8008.28
413.171	8048.88
413.391	8087.95
413.611	8128.73
413.831	8166.33
414.05	8207.84
414.27	8250.35
414.489	8292.19
414.709	8336.01
414.929	8377.82
415.148	8411.97
415.368	8454.77
415.587	8499.77
415.807	8545.61
416.026	8589.06
416.246	8629.73
416.465	8675.08
416.685	8714.9
416.904	8756.57
417.124	8795.97
417.343	8834.95
417.563	8885.97
417.782	8932.82
418.002	8976.1
418.221	9019.55
418.44	9064.44
418.66	9113.22
418.879	9155.92
419.098	9198.33
419.318	9242.7
419.537	9289.75
419.756	9339.32
419.976	9380.3
420.195	9421.22
420.414	9462.12
420.633	9505.84
420.853	9545.77
421.072	9585.08
421.291	9632.79
421.51	9682.13
421.729	9726.84
421.948	9771.48
422.168	9810.06
422.387	9854.01
422.606	9906.02
422.825	9952.88
423.044	9997.88
423.263	10047.15
423.482	10093.86
423.701	10130.73
423.92	10178.22
424.139	10223.68
424.358	10265.22
424.577	10316.53
424.796	10360.66
425.015	10400.59
425.234	10444.68
425.453	10490.33
425.672	10534.12
425.891	10582.26
426.11	10634.35
426.328	10677.44
426.547	10719.41
426.766	10768.72
426.985	10812.22
427.204	10863.62
427.422	10916.06
427.641	10965.04
427.86	11013.48
428.079	11061.7
428.297	11109.75
428.516	11157.52
428.735	11204.01
428.954	11257.13
429.172	11303.1
429.391	11350.33
429.61	11399.17
429.828	11443.81
430.047	11487.13
430.265	11532.75
430.484	11577.86
430.703	11622.79
430.921	11668.66
431.14	11716.3
431.358	11761.53
431.577	11805.92
431.795	11856.99
432.014	11903.33
432.232	11953.59
432.451	12002.64
432.669	12050.82
432.887	12102.15
433.106	12149.17
433.324	12195.59
433.543	12241.04
433.761	12289.35
433.979	12343.22
434.198	12390.59
434.416	12436.26
434.634	12481.59
434.853	12529.08
435.071	12576.86
435.289	12621.39
435.507	12668.55
435.726	12716.28
435.944	12765.42
436.162	12807.95
436.38	12850.62
436.598	12897.24
436.817	12943.64
437.035	12987.33
437.253	13034.7
437.471	13078.06
437.689	13124.01
437.907	13167.57
438.125	13214.44
438.343	13263.72
438.561	13315.57
438.78	13365.01
438.998	13409.46
439.216	13459.92
439.434	13503.9
439.652	13551.13
439.869	13603.62
440.087	13650.22
440.305	13705.53
440.523	13755.53
440.741	13803.06
440.959	13849.12
441.177	13893.41
441.395	13940.24
441.613	13984.66
441.831	14034.92
442.048	14078.37
442.266	14120.95
442.484	14169.81
442.702	14215.7
442.919	14263.9
443.137	14309.32
443.355	14355.97
443.573	14409.75
443.79	14462.46
444.008	14507.79
444.226	14557.9
444.443	14611.75
444.661	14660.7
444.879	14712.39
445.096	14759.75
445.314	14807.48
445.532	14860.84
445.749	14911.35
445.967	14956.17
446.184	14997.86
446.402	15043.32
446.619	15091.28
446.837	15133.93
447.054	15183.7
447.272	15229.59
447.489	15274.21
447.707	15320.35
447.924	15363.13
448.141	15412.22
448.359	15464.37
448.576	15516.99
448.794	15566.52
449.011	15621.66
449.228	15671.97
449.446	15722.88
449.663	15767.22
449.88	15815.73
450.098	15865.88
450.315	15916.77
450.532	15965.97
450.749	16010.44
450.967	16055.61
451.184	16111.77
451.401	16148.53
451.618	16201.88
451.835	16251.02
452.052	16302.28
452.27	16348.61
452.487	16397.12
452.704	16437.42
452.921	16478.26
453.138	16524.7
453.355	16576.95
453.572	16619.92
453.789	16669.95
454.006	16713.02
454.223	16760.12
454.44	16812.26
