Data from test1_MAYP1115451__1__10-17-09-624.txt Node

Date: Wed Jun 12 10:17:09 MDT 2024
User: Modes Lab
Spectrometer: MAYP111545
Trigger mode: 0
Integration Time (sec): 8.000000E-3
Scans to average: 5
Electric dark correction enabled: true
Nonlinearity correction enabled: false
Boxcar width: 5
XAxis mode: Wavelengths
Number of Pixels in Spectrum: 2068
>>>>>Begin Spectral Data<<<<<
165.214	163.87
165.449	163.65
165.683	173.28
165.918	182.27
166.152	189.11
166.387	194.52
166.621	125.73
166.856	164.52
167.09	183.01
167.325	206.62
167.559	222.86
167.794	237.61
168.028	245.19
168.263	246.02
168.497	245.75
168.732	245.5
168.966	245.97
169.2	247.24
169.435	249.06
169.669	250.62
169.903	252.02
170.138	253.57
170.372	254.5
170.606	256.12
170.841	257.62
171.075	258.64
171.309	261.35
171.544	262.46
171.778	264.68
172.012	265.62
172.246	266.93
172.48	268.52
172.715	270.24
172.949	272.35
173.183	273.57
173.417	275.06
173.651	277.26
173.885	277.44
174.119	279.42
174.354	280.59
174.588	281.86
174.822	283.84
175.056	284.13
175.29	283.57
175.524	282.68
175.758	282.62
175.992	282.3
176.226	283.19
176.46	283.75
176.694	283.35
176.928	283.44
177.162	283.72
177.396	283.02
177.63	284.41
177.864	285.92
178.097	287.64
178.331	289.04
178.565	289.9
178.799	290.04
179.033	291.46
179.267	292.33
179.5	292.64
179.734	292.35
179.968	293.92
180.202	294.84
180.436	296.42
180.669	297.35
180.903	298.7
181.137	300.26
181.371	300.53
181.604	301.04
181.838	302.13
182.072	303.5
182.305	305.57
182.539	306.37
182.772	306.15
183.006	306.86
183.24	307.3
183.473	309.95
183.707	310.32
183.94	311.86
184.174	313.04
184.408	314.28
184.641	315.46
184.875	316.04
185.108	317.75
185.342	319.46
185.575	319.86
185.808	321.39
186.042	321.46
186.275	323.77
186.509	324.77
186.742	325.84
186.976	327.33
187.209	328.52
187.442	331.15
187.676	331.61
187.909	333.82
188.142	335.68
188.376	337.93
188.609	339.01
188.842	340.26
189.076	341.12
189.309	342.61
189.542	344.77
189.775	347.22
190.009	348.06
190.242	349.19
190.475	349.88
190.708	352.08
190.941	352.75
191.174	354.75
191.408	356.1
191.641	358.44
191.874	360.28
192.107	361.44
192.34	362.61
192.573	364.75
192.806	366.24
193.039	368.59
193.272	370.72
193.505	372.48
193.738	373.55
193.971	375.5
194.204	377.39
194.437	379.15
194.67	380.5
194.903	382.82
195.136	384.77
195.369	388.24
195.602	389.75
195.835	391.86
196.068	394.55
196.301	396.75
196.533	398.95
196.766	401.62
196.999	403.37
197.232	405.86
197.465	407.1
197.698	408.64
197.93	410.53
198.163	412.35
198.396	413.37
198.629	415.01
198.861	416.75
199.094	418.7
199.327	420.35
199.559	422.28
199.792	425.17
200.025	426.62
200.257	429.12
200.49	430.99
200.723	433.73
200.955	436.33
201.188	437.79
201.42	440.61
201.653	442.95
201.886	445.42
202.118	448.66
202.351	449.64
202.583	453.04
202.816	454.28
203.048	456.5
203.281	458.17
203.513	460.02
203.745	463.1
203.978	464.66
204.21	465.99
204.443	466.86
204.675	468.62
204.907	471.62
205.14	474.01
205.372	476.86
205.605	479.02
205.837	481.06
206.069	483.12
206.302	484.19
206.534	486.08
206.766	488.5
206.998	493.46
207.231	495.93
207.463	499.01
207.695	501.24
207.927	503.01
208.159	505.3
208.392	507.42
208.624	509.13
208.856	512.32
209.088	515.28
209.32	518.22
209.552	518.02
209.784	519.59
210.017	521.35
210.249	524.26
210.481	525.44
210.713	527.82
210.945	530.28
211.177	533.15
211.409	534.62
211.641	536.01
211.873	538.26
212.105	541.68
212.337	543.24
212.569	543.75
212.801	544.41
213.033	546.77
213.264	548.06
213.496	549.39
213.728	552.06
213.96	553.88
214.192	554.79
214.424	555.17
214.656	555.19
214.887	558.1
215.119	560.04
215.351	562.15
215.583	563.72
215.815	564.64
216.046	567.57
216.278	568.68
216.51	570.13
216.741	573.61
216.973	575.7
217.205	578.57
217.436	580.08
217.668	582.82
217.9	584.33
218.131	585.93
218.363	588.72
218.595	590.04
218.826	590.66
219.058	593.33
219.289	593.73
219.521	595.01
219.752	595.84
219.984	596.95
220.215	596.84
220.447	597.55
220.678	599.12
220.91	599.53
221.141	599.93
221.373	601.73
221.604	602.52
221.836	603.35
222.067	603.32
222.298	603.39
222.53	603.92
222.761	605.82
222.993	606.66
223.224	608.22
223.455	609.06
223.686	610.22
223.918	610.44
224.149	610.84
224.38	611.48
224.612	613.02
224.843	614.86
225.074	615.41
225.305	615.95
225.536	616.99
225.768	617.55
225.999	619.08
226.23	620.42
226.461	620.08
226.692	620.81
226.923	622.1
227.155	624.59
227.386	624.66
227.617	625.02
227.848	625.53
228.079	627.37
228.31	627.24
228.541	627.92
228.772	627.55
229.003	628.33
229.234	627.99
229.465	628.41
229.696	626.52
229.927	625.9
230.158	626.3
230.389	624.24
230.62	622.81
230.85	623.62
231.081	621.68
231.312	621.08
231.543	621.73
231.774	622.28
232.005	621.32
232.236	622.61
232.466	622.92
232.697	623.3
232.928	624.7
233.159	624.9
233.389	624.52
233.62	624.95
233.851	625.1
234.082	625.79
234.312	625.08
234.543	626.02
234.774	624.66
235.004	624.55
235.235	624.37
235.466	624.12
235.696	623.24
235.927	622.39
236.157	621.55
236.388	621.17
236.618	620.04
236.849	620.22
237.08	618.52
237.31	618.46
237.541	617.55
237.771	616.12
238.002	616.79
238.232	616.53
238.463	615.97
238.693	616.72
238.923	616.24
239.154	615.75
239.384	614.99
239.615	613.19
239.845	612.92
240.075	614.06
240.306	613.73
240.536	612.22
240.766	611.84
240.997	611.92
241.227	612.21
241.457	612.7
241.687	612.22
241.918	612.26
242.148	613.99
242.378	613.88
242.608	612.62
242.839	612.33
243.069	612.02
243.299	612.68
243.529	613.7
243.759	611.79
243.989	611.7
244.22	611.24
244.45	610.17
244.68	609.79
244.91	609.12
245.14	609.24
245.37	610.3
245.6	609.64
245.83	607.93
246.06	605.64
246.29	606.79
246.52	604.9
246.75	604.26
246.98	602.75
247.21	602.84
247.44	602.26
247.67	601.88
247.9	599.39
248.13	599.28
248.359	598.68
248.589	598.44
248.819	597.84
249.049	597.72
249.279	598.24
249.509	599.08
249.738	598.21
249.968	596.72
250.198	594.66
250.428	595.99
250.657	594.73
250.887	594.62
251.117	594.13
251.347	592.57
251.576	591.95
251.806	590.04
252.036	589.48
252.265	588.68
252.495	589.24
252.725	590.15
252.954	588.48
253.184	587.33
253.413	586.37
253.643	585.9
253.873	585.99
254.102	585.06
254.332	584.48
254.561	583.97
254.791	583.02
255.02	582.24
255.25	582.22
255.479	581.26
255.708	582.13
255.938	581.3
256.167	580.33
256.397	579.62
256.626	579.68
256.856	581.32
257.085	581.42
257.314	580.92
257.544	579.55
257.773	577.86
258.002	578.39
258.232	577.44
258.461	577.82
258.69	577.82
258.919	576.12
259.149	574.37
259.378	572.73
259.607	570.26
259.836	570.26
260.065	570.9
260.295	569.53
260.524	567.88
260.753	566.73
260.982	566.28
261.211	565.55
261.44	564.61
261.669	564.64
261.899	563.7
262.128	564.28
262.357	561.84
262.586	560.61
262.815	560.39
263.044	560.12
263.273	562.92
263.502	561.72
263.731	560.97
263.96	559.97
264.189	559.9
264.418	559.1
264.646	558.82
264.875	559.08
265.104	557.75
265.333	557.08
265.562	557.06
265.791	552.82
266.02	550.77
266.249	549.48
266.477	549.01
266.706	546.46
266.935	544.92
267.164	544.44
267.393	544.46
267.621	545.01
267.85	544.13
268.079	542.12
268.307	541.19
268.536	541.9
268.765	541.99
268.993	542.93
269.222	543.28
269.451	542.84
269.679	540.1
269.908	539.97
270.137	539.42
270.365	539.66
270.594	540.26
270.822	540.99
271.051	541.22
271.279	538.99
271.508	539.59
271.736	540.24
271.965	540.79
272.193	542.68
272.422	542.3
272.65	540.7
272.879	539.48
273.107	537.79
273.336	536.86
273.564	535.92
273.792	536.72
274.021	533.66
274.249	532.26
274.477	529.9
274.706	527.06
274.934	524.53
275.162	523.88
275.391	523.62
275.619	523.86
275.847	522.41
276.075	521.26
276.304	520.73
276.532	520.84
276.76	520.24
276.988	519.9
277.216	520.53
277.445	519.99
277.673	519.59
277.901	519.32
278.129	518.53
278.357	517.37
278.585	518.57
278.813	517.46
279.041	517.95
279.269	516.61
279.497	518.04
279.725	518.19
279.954	518.86
280.182	517.62
280.41	516.99
280.637	516.55
280.865	517.93
281.093	514.79
281.321	514.5
281.549	512.26
281.777	512.37
282.005	510.24
282.233	508.22
282.461	506.15
282.689	506.01
282.916	505.3
283.144	505.3
283.372	503.68
283.6	504.06
283.828	503.24
284.055	502.7
284.283	502.1
284.511	501.88
284.739	502.3
284.966	502.84
285.194	502.42
285.422	501.24
285.649	500.79
285.877	499.93
286.105	499.72
286.332	499.39
286.56	499.62
286.788	499.08
287.015	499.32
287.243	498.82
287.47	498.17
287.698	498.44
287.925	499.44
288.153	498.92
288.381	500.04
288.608	499.04
288.836	498.59
289.063	498.3
289.29	498.72
289.518	498.28
289.745	497.52
289.973	496.99
290.2	496.55
290.428	494.77
290.655	493.75
290.882	492.17
291.11	491.7
291.337	491.06
291.564	490.59
291.792	490.01
292.019	488.88
292.246	487.68
292.473	487.55
292.701	486.26
292.928	486.37
293.155	486.28
293.382	486.26
293.61	485.37
293.837	484.88
294.064	483.5
294.291	482.08
294.518	480.99
294.745	480.41
294.972	479.82
295.2	479.72
295.427	478.95
295.654	477.92
295.881	475.7
296.108	475.73
296.335	474.5
296.562	474.57
296.789	473.95
297.016	473.73
297.243	473.19
297.47	472.37
297.697	471.24
297.924	470.68
298.151	469.48
298.378	469.02
298.604	469.53
298.831	470.15
299.058	469.82
299.285	469.81
299.512	468.93
299.739	468.15
299.966	469.26
300.192	469.32
300.419	468.26
300.646	467.95
300.873	468.53
301.099	465.84
301.326	464.95
301.553	463.48
301.78	464.39
302.006	464.35
302.233	463.84
302.46	461.02
302.686	460.86
302.913	461.17
303.14	459.99
303.366	460.1
303.593	461.37
303.819	460.99
304.046	461.64
304.272	460.77
304.499	460.15
304.725	460.95
304.952	462.06
305.179	460.77
305.405	460.37
305.631	461.52
305.858	460.44
306.084	458.93
306.311	459.92
306.537	458.61
306.764	456.33
306.99	457.48
307.216	456.66
307.443	456.13
307.669	456.39
307.895	455.93
308.122	455.04
308.348	454.15
308.574	453.44
308.801	452.39
309.027	453.08
309.253	453.57
309.479	452.3
309.706	452.84
309.932	452.12
310.158	452.01
310.384	451.57
310.61	452.59
310.837	452.88
311.063	453.48
311.289	453.08
311.515	452.9
311.741	452.15
311.967	452.04
312.193	451.9
312.419	452.66
312.645	452.48
312.871	452.81
313.097	452.37
313.323	454.01
313.549	455.37
313.775	455.33
314.001	456.15
314.227	456.95
314.453	456.39
314.679	456.04
314.905	455.44
315.131	455.28
315.357	455.93
315.583	455.32
315.809	454.75
316.034	453.88
316.26	453.12
316.486	452.26
316.712	453.82
316.938	454.84
317.163	455.73
317.389	456.73
317.615	458.59
317.841	458.35
318.066	459.86
318.292	459.79
318.518	460.68
318.743	461.61
318.969	462.77
319.195	462.97
319.42	463.5
319.646	464.08
319.872	464.21
320.097	464.15
320.323	464.55
320.548	465.28
320.774	467.15
320.999	467.97
321.225	469.77
321.45	471.08
321.676	470.64
321.901	472.64
322.127	474.12
322.352	475.12
322.578	477.48
322.803	479.7
323.029	480.9
323.254	482.19
323.479	483.93
323.705	485.52
323.93	485.97
324.155	489.53
324.381	490.79
324.606	492.01
324.831	495.26
325.057	495.62
325.282	497.35
325.507	499.82
325.732	502.3
325.958	504.73
326.183	506.22
326.408	509.02
326.633	511.12
326.858	513.7
327.084	516.35
327.309	517.99
327.534	521.44
327.759	524.68
327.984	527.3
328.209	529.57
328.434	532.84
328.659	536.93
328.884	541.01
329.109	543.44
329.334	545.61
329.559	549.02
329.784	551.55
330.009	555.52
330.234	559.92
330.459	562.93
330.684	566.92
330.909	571.01
331.134	575.13
331.359	578.22
331.584	582.39
331.809	587.06
332.034	592.08
332.259	596.99
332.483	600.99
332.708	604.35
332.933	610.08
333.158	613.64
333.383	617.48
333.607	621.06
333.832	625.08
334.057	629.97
334.282	634.59
334.506	638.95
334.731	645.72
334.956	651.13
335.18	656.9
335.405	661.02
335.63	667.59
335.854	672.93
336.079	680.19
336.303	687.08
336.528	693.1
336.753	699.84
336.977	705.72
337.202	709.93
337.426	715.44
337.651	720.33
337.875	726.28
338.1	734.24
338.324	741.1
338.549	747.88
338.773	755.42
338.997	761.72
339.222	769.08
339.446	776.24
339.671	784.59
339.895	793.17
340.119	801.93
340.344	809.32
340.568	814.73
340.792	823.37
341.017	831.22
341.241	839.37
341.465	847.84
341.689	856.75
341.914	865.3
342.138	872.28
342.362	880.84
342.586	888.24
342.811	897.35
343.035	905.13
343.259	913.17
343.483	922.17
343.707	931.06
343.931	942.17
344.155	950.62
344.38	960.24
344.604	971.3
344.828	980.04
345.052	989.22
345.276	999.19
345.5	1009.48
345.724	1019.24
345.948	1027.52
346.172	1037.97
346.396	1045.86
346.62	1055.15
346.844	1064.06
347.068	1073.35
347.292	1083.44
347.515	1094.53
347.739	1105.73
347.963	1115.77
348.187	1124.21
348.411	1133.46
348.635	1142.1
348.859	1152.08
349.082	1162.28
349.306	1172.84
349.53	1183.32
349.754	1193.68
349.977	1203.02
350.201	1213.64
350.425	1225.04
350.649	1238.33
350.872	1250.06
351.096	1260.73
351.32	1272.01
351.543	1282.55
351.767	1291.93
351.99	1301.99
352.214	1312.95
352.438	1324.7
352.661	1333.04
352.885	1345.52
353.108	1356.3
353.332	1368.84
353.555	1380.79
353.779	1390.66
354.002	1403.95
354.226	1417.35
354.449	1431.04
354.673	1443.88
354.896	1453.82
355.12	1466.46
355.343	1476.01
355.566	1487.48
355.79	1498.92
356.013	1511.92
356.237	1524.44
356.46	1535.93
356.683	1548.9
356.907	1561.42
357.13	1572.86
357.353	1587.41
357.576	1599.9
357.8	1614.53
358.023	1625.42
358.246	1638.7
358.469	1650.21
358.693	1665.04
358.916	1678.12
359.139	1690.33
359.362	1703.15
359.585	1715.66
359.808	1727.77
360.031	1740.95
360.255	1751.61
360.478	1765.73
360.701	1779.81
360.924	1793.55
361.147	1806.08
361.37	1820.01
361.593	1834.95
361.816	1844.84
362.039	1858.88
362.262	1874.5
362.485	1888.32
362.708	1904.44
362.931	1917.35
363.154	1930.77
363.377	1944.12
363.599	1959.21
363.822	1971.08
364.045	1986.46
364.268	2002.86
364.491	2017.48
364.714	2031.95
364.936	2046.48
365.159	2063.19
365.382	2079.61
365.605	2091.72
365.828	2109.42
366.05	2123.72
366.273	2140.5
366.496	2151.95
366.718	2166.68
366.941	2182.48
367.164	2196.24
367.386	2212.5
367.609	2223.55
367.832	2241.53
368.054	2260.19
368.277	2273.04
368.5	2290.5
368.722	2305.9
368.945	2322.55
369.167	2338.82
369.39	2350.95
369.612	2368.19
369.835	2383.44
370.057	2402.61
370.28	2416.33
370.502	2430.92
370.725	2447.33
370.947	2460.84
371.169	2478.52
371.392	2495.57
371.614	2509.48
371.837	2529.64
372.059	2548.01
372.281	2566.73
372.504	2583.04
372.726	2599.75
372.948	2614.88
373.171	2632.32
373.393	2649.88
373.615	2665.64
373.837	2682.44
374.06	2703.75
374.282	2720.59
374.504	2736.13
374.726	2753.37
374.948	2773.92
375.17	2791.53
375.393	2813.26
375.615	2834.13
375.837	2854.39
376.059	2873.55
376.281	2893.88
376.503	2913.53
376.725	2935.59
376.947	2955.62
377.169	2976.37
377.391	2994.35
377.613	3015.68
377.835	3035.39
378.057	3054.15
378.279	3074.57
378.501	3099.12
378.723	3120.59
378.945	3140.68
379.167	3158.99
379.389	3180.73
379.611	3201.86
379.833	3223.62
380.054	3245.46
380.276	3268.59
380.498	3293.08
380.72	3317.53
380.942	3338.68
381.163	3365.02
381.385	3391.19
381.607	3417.64
381.829	3443.17
382.05	3465.9
382.272	3490.92
382.494	3517.28
382.716	3542.32
382.937	3564.68
383.159	3589.42
383.381	3615.62
383.602	3638.06
383.824	3660.99
384.045	3686.66
384.267	3710.08
384.488	3739.9
384.71	3767.52
384.932	3791.75
385.153	3819.53
385.375	3849.52
385.596	3875.12
385.818	3900.1
386.039	3926.06
386.261	3956.9
386.482	3984.97
386.703	4013.21
386.925	4038.3
387.146	4065.93
387.368	4094.73
387.589	4121.9
387.81	4149.28
388.032	4178.72
388.253	4210.99
388.474	4241.75
388.696	4267.82
388.917	4294.73
389.138	4323.82
389.359	4352.73
389.581	4382.1
389.802	4412.21
390.023	4442.33
390.244	4469.37
390.465	4498.22
390.687	4523.97
390.908	4555.39
391.129	4586.86
391.35	4616.77
391.571	4653.81
391.792	4684.5
392.013	4714.1
392.234	4745.52
392.455	4776.53
392.677	4810.75
392.898	4840.99
393.119	4873.37
393.34	4902.61
393.561	4932.15
393.782	4963.3
394.003	4991.77
394.223	5025.01
394.444	5056.24
394.665	5088.95
394.886	5119.08
395.107	5151.68
395.328	5188.12
395.549	5222.3
395.77	5256.9
395.99	5291.04
396.211	5326.73
396.432	5360.75
396.653	5392.61
396.874	5427.82
397.094	5461.75
397.315	5493.86
397.536	5522.9
397.757	5556.97
397.977	5590.97
398.198	5622.41
398.419	5658.35
398.639	5693.84
398.86	5723.57
399.081	5758.44
399.301	5792.26
399.522	5824.37
399.742	5858.59
399.963	5895.33
400.184	5928.21
400.404	5962.12
400.625	5995.77
400.845	6031.35
401.066	6062.57
401.286	6096.97
401.507	6124.97
401.727	6158.72
401.948	6192.39
402.168	6230.08
402.388	6266.33
402.609	6299.7
402.829	6331.02
403.05	6366.41
403.27	6395.84
403.49	6429.48
403.711	6465.59
403.931	6508.5
404.151	6544.59
404.372	6578.53
404.592	6611.15
404.812	6645.5
405.032	6679.02
405.253	6712.99
405.473	6747.5
405.693	6785.06
405.913	6822.37
406.133	6857.5
406.353	6892.73
406.574	6925.92
406.794	6960.82
407.014	6996.53
407.234	7029.37
407.454	7063.64
407.674	7098.33
407.894	7134.55
408.114	7172.06
408.334	7206.84
408.554	7244.95
408.774	7278.95
408.994	7314.7
409.214	7352.02
409.434	7389.61
409.654	7428.41
409.874	7468.42
410.094	7507.9
410.314	7545.46
410.534	7580.39
410.754	7619.21
410.974	7657.75
411.193	7690.15
411.413	7728.06
411.633	7766.95
411.853	7805.15
412.073	7843.53
412.292	7881.82
412.512	7922.37
412.732	7957.84
412.952	7997.17
413.171	8031.77
413.391	8068.5
413.611	8113.84
413.831	8156.7
414.05	8199.79
414.27	8242.62
414.489	8284.08
414.709	8328.06
414.929	8368.59
415.148	8412.93
415.368	8457.52
415.587	8502.59
415.807	8546.75
416.026	8588.82
416.246	8626.01
416.465	8667.99
416.685	8708.1
416.904	8748.26
417.124	8791.35
417.343	8835.81
417.563	8879.73
417.782	8925.17
418.002	8970.52
418.221	9014.97
418.44	9064.08
418.66	9115.64
418.879	9159.82
419.098	9208.68
419.318	9253.01
419.537	9301.06
419.756	9346.81
419.976	9392.08
420.195	9433.26
420.414	9481.41
420.633	9522.24
420.853	9563.53
421.072	9604.15
421.291	9649.3
421.51	9696.35
421.729	9743.42
421.948	9781.26
422.168	9820.86
422.387	9866.62
422.606	9908.97
422.825	9947.46
423.044	9993.15
423.263	10033.48
423.482	10077.57
423.701	10121.5
423.92	10164.52
424.139	10206.52
424.358	10250.02
424.577	10297.82
424.796	10343.37
425.015	10389.7
425.234	10441.04
425.453	10487.72
425.672	10537.75
425.891	10585.1
426.11	10631.52
426.328	10668.82
426.547	10719.02
426.766	10769.59
426.985	10817.86
427.204	10864.55
427.422	10911.7
427.641	10955.46
427.86	11000.3
428.079	11048.92
428.297	11094.66
428.516	11140.5
428.735	11193.26
428.954	11243.02
429.172	11289.57
429.391	11337.48
429.61	11384.19
429.828	11433.02
430.047	11481.02
430.265	11530.39
430.484	11573.48
430.703	11623.52
430.921	11671.06
431.14	11720.39
431.358	11760.62
431.577	11804.28
431.795	11851.35
432.014	11900.26
432.232	11949.41
432.451	11998.84
432.669	12043.95
432.887	12090.42
433.106	12135.02
433.324	12184.86
433.543	12231.61
433.761	12283.79
433.979	12330.48
434.198	12376.68
434.416	12422.95
434.634	12468.55
434.853	12509.17
435.071	12560.35
435.289	12604.62
435.507	12653.28
435.726	12694.77
435.944	12739.19
436.162	12782.55
436.38	12828.12
436.598	12876.92
436.817	12917.04
437.035	12965.42
437.253	13015.52
437.471	13061.97
437.689	13115.22
437.907	13159.93
438.125	13208.41
438.343	13257.13
438.561	13306.39
438.78	13358.22
438.998	13400.77
439.216	13453.32
439.434	13494.57
439.652	13543.44
439.869	13586.97
440.087	13630.75
440.305	13679.86
440.523	13730.88
440.741	13777.82
440.959	13828.92
441.177	13879.68
441.395	13928.19
441.613	13977.53
441.831	14027.92
442.048	14072.08
442.266	14123.17
442.484	14177.79
442.702	14222.99
442.919	14269.42
443.137	14322.28
443.355	14367.37
443.573	14414.06
443.79	14464.7
444.008	14514.22
444.226	14565.35
444.443	14612.28
444.661	14655.9
444.879	14703.92
445.096	14753.15
445.314	14804.21
445.532	14849.17
445.749	14900.19
445.967	14944.39
446.184	14992.68
446.402	15037.22
446.619	15083.57
446.837	15135.32
447.054	15190.48
447.272	15234.72
447.489	15286.35
447.707	15330.42
447.924	15380.19
448.141	15428.53
448.359	15478.28
448.576	15522.73
448.794	15573.86
449.011	15626.26
449.228	15673.13
449.446	15714.59
449.663	15762.75
449.88	15811.26
450.098	15859.41
450.315	15904.44
450.532	15946.79
450.749	15995.08
450.967	16047.62
451.184	16095.42
451.401	16138.5
451.618	16187.64
451.835	16242.32
452.052	16287.59
452.27	16332.57
452.487	16384.19
452.704	16432.37
452.921	16481.81
453.138	16525.48
453.355	16575.22
453.572	16622.04
453.789	16672.01
454.006	16722.9
454.223	16761.32
454.44	16813.26
