Data from test1_MAYP1115451__8__10-17-11-742.txt Node

Date: Wed Jun 12 10:17:11 MDT 2024
User: Modes Lab
Spectrometer: MAYP111545
Trigger mode: 0
Integration Time (sec): 8.000000E-3
Scans to average: 5
Electric dark correction enabled: true
Nonlinearity correction enabled: false
Boxcar width: 5
XAxis mode: Wavelengths
Number of Pixels in Spectrum: 2068
>>>>>Begin Spectral Data<<<<<
165.214	163.2
165.449	164.14
165.683	172.97
165.918	181.89
166.152	187.8
166.387	193.47
166.621	125.6
166.856	164.36
167.09	183.11
167.325	207.04
167.559	223.65
167.794	238.69
168.028	245.8
168.263	247.44
168.497	246.64
168.732	247.6
168.966	248.6
169.2	250.16
169.435	251.4
169.669	252.67
169.903	253.64
170.138	255.36
170.372	256.67
170.606	257.71
170.841	258.91
171.075	261.07
171.309	262.58
171.544	262.69
171.778	263.31
172.012	265.16
172.246	267.42
172.48	269.82
172.715	271.89
172.949	273.24
173.183	275.71
173.417	277.2
173.651	279.53
173.885	280.76
174.119	282.27
174.354	283.62
174.588	283.33
174.822	283.53
175.056	282.8
175.29	282.44
175.524	282.64
175.758	281.62
175.992	282.24
176.226	281.05
176.46	281.71
176.694	283.82
176.928	284.51
177.162	286.09
177.396	286.47
177.63	287.71
177.864	288.2
178.097	289.85
178.331	291.78
178.565	292.04
178.799	293.76
179.033	293.96
179.267	293.55
179.5	294.11
179.734	294.38
179.968	296.44
180.202	296.58
180.436	297.15
180.669	297.25
180.903	297.64
181.137	298.87
181.371	299.67
181.604	300.6
181.838	301.38
182.072	302.15
182.305	304.16
182.539	304.75
182.772	306.55
183.006	308.05
183.24	308.65
183.473	311.93
183.707	311.95
183.94	313.58
184.174	315.73
184.408	316.6
184.641	318.31
184.875	318.8
185.108	320.16
185.342	321.25
185.575	322.73
185.808	325.18
186.042	325.07
186.275	327.04
186.509	327.69
186.742	327.91
186.976	329.16
187.209	330.67
187.442	333.11
187.676	333.75
187.909	334.56
188.142	335.73
188.376	335.96
188.609	337.75
188.842	339.27
189.076	340.49
189.309	342.73
189.542	344.44
189.775	346.29
190.009	347.36
190.242	349.07
190.475	352.09
190.708	353.51
190.941	355.24
191.174	356.35
191.408	358.76
191.641	360.13
191.874	361.76
192.107	364.11
192.34	365.05
192.573	367.22
192.806	369.25
193.039	370.58
193.272	371.71
193.505	374.27
193.738	375.62
193.971	377.56
194.204	379.91
194.437	381.78
194.67	383.33
194.903	385.02
195.136	385.85
195.369	387.04
195.602	388.13
195.835	391.16
196.068	392.58
196.301	393.78
196.533	396.64
196.766	398.09
196.999	400.24
197.232	402.73
197.465	404.84
197.698	407.47
197.93	410.65
198.163	412.6
198.396	415.25
198.629	417.25
198.861	420.22
199.094	420.8
199.327	422.89
199.559	424.36
199.792	425.25
200.025	427.45
200.257	427.76
200.49	429.16
200.723	431.82
200.955	433.45
201.188	435.35
201.42	437.67
201.653	440.31
201.886	443.55
202.118	447.45
202.351	450.22
202.583	452.58
202.816	456.02
203.048	459.09
203.281	461.09
203.513	463
203.745	466.53
203.978	468.13
204.21	469.35
204.443	470.45
204.675	470.36
204.907	473.15
205.14	474.78
205.372	477.69
205.605	478.67
205.837	480.75
206.069	483.15
206.302	484.55
206.534	486.87
206.766	489.6
206.998	491.75
207.231	495.33
207.463	497.45
207.695	500.07
207.927	500.73
208.159	503.36
208.392	505.44
208.624	507.42
208.856	509.67
209.088	511.11
209.32	512.78
209.552	515.42
209.784	517.13
210.017	519.71
210.249	521.95
210.481	524.69
210.713	528.64
210.945	531.11
211.177	532.65
211.409	534.96
211.641	537.62
211.873	539.51
212.105	541.71
212.337	543.75
212.569	544.44
212.801	546.64
213.033	548.69
213.264	548.87
213.496	550.35
213.728	552
213.96	553.09
214.192	555.09
214.424	558.25
214.656	560.42
214.887	561.09
215.119	563.82
215.351	565.29
215.583	566.98
215.815	568.67
216.046	570.6
216.278	573.02
216.51	575.29
216.741	576.64
216.973	577.71
217.205	579.24
217.436	581.76
217.668	583.67
217.9	585.56
218.131	586.31
218.363	588
218.595	590.25
218.826	591.6
219.058	591.71
219.289	593.44
219.521	593.93
219.752	593.44
219.984	593.42
220.215	593.29
220.447	592.84
220.678	594.11
220.91	595.4
221.141	595.58
221.373	596.65
221.604	597.33
221.836	598.91
222.067	599.64
222.298	602.76
222.53	605.31
222.761	606.78
222.993	608.18
223.224	609.42
223.455	609.4
223.686	609.87
223.918	610.16
224.149	611.35
224.38	611.18
224.612	612.62
224.843	612.35
225.074	611.91
225.305	612.07
225.536	613.24
225.768	614.09
225.999	613.64
226.23	614.33
226.461	614.8
226.692	616.84
226.923	616.64
227.155	618.02
227.386	619.07
227.617	619.95
227.848	620.89
228.079	621.8
228.31	622.02
228.541	623.65
228.772	624.04
229.003	624.29
229.234	623.96
229.465	624.6
229.696	623.64
229.927	623.62
230.158	624.36
230.389	624.29
230.62	624.25
230.85	624.58
231.081	624.24
231.312	623.36
231.543	623.07
231.774	623.33
232.005	624.36
232.236	624.73
232.466	623.62
232.697	624.71
232.928	624.89
233.159	622.95
233.389	622.04
233.62	623.45
233.851	624.4
234.082	624.67
234.312	625.18
234.543	623.73
234.774	623.62
235.004	623.4
235.235	622.09
235.466	622.15
235.696	623.62
235.927	623.53
236.157	623.31
236.388	624.29
236.618	625.47
236.849	624.07
237.08	625.33
237.31	624.65
237.541	624.51
237.771	624.55
238.002	624.02
238.232	623.47
238.463	623.53
238.693	622.45
238.923	621.82
239.154	619.82
239.384	618.89
239.615	618.27
239.845	618.87
240.075	618.4
240.306	617.38
240.536	615.78
240.766	615.91
240.997	616.29
241.227	615.96
241.457	613.73
241.687	614.58
241.918	615.4
242.148	614.38
242.378	613.64
242.608	614.38
242.839	612.85
243.069	613.25
243.299	611.64
243.529	612
243.759	612.35
243.989	612.47
244.22	610.6
244.45	609.55
244.68	609.25
244.91	608.78
245.14	607.4
245.37	608.45
245.6	606.91
245.83	606.71
246.06	605.05
246.29	603.53
246.52	603.76
246.75	604.4
246.98	603.98
247.21	603.85
247.44	603.25
247.67	603.29
247.9	602.42
248.13	603.62
248.359	602.51
248.589	601.6
248.819	599.76
249.049	598.96
249.279	597.4
249.509	595.8
249.738	594.33
249.968	593.84
250.198	591.65
250.428	590.82
250.657	589.15
250.887	589.91
251.117	589.87
251.347	590.22
251.576	589.55
251.806	589.49
252.036	589.44
252.265	590.38
252.495	589.8
252.725	590.78
252.954	590.05
253.184	589.51
253.413	589.25
253.643	588.62
253.873	586.93
254.102	585.47
254.332	584.42
254.561	585.07
254.791	584.11
255.02	582.45
255.25	581.76
255.479	582.24
255.708	581.76
255.938	581.24
256.167	580.13
256.397	580.64
256.626	581.93
256.856	581.42
257.085	578.76
257.314	577.35
257.544	577.53
257.773	576.62
258.002	575.27
258.232	575.4
258.461	573.95
258.69	573.29
258.919	572
259.149	570.93
259.378	570.6
259.607	570.98
259.836	570.8
260.065	569.89
260.295	569.96
260.524	568.93
260.753	568.76
260.982	568.4
261.211	568.6
261.44	567.85
261.669	566.36
261.899	565.73
262.128	565.98
262.357	564.04
262.586	563.69
262.815	563
263.044	562.38
263.273	563.04
263.502	562.2
263.731	561
263.96	560.75
264.189	559.69
264.418	559.27
264.646	557.82
264.875	557.16
265.104	556.04
265.333	555.18
265.562	554.09
265.791	551.22
266.02	549.55
266.249	547.82
266.477	546.05
266.706	545.31
266.935	544.58
267.164	544.93
267.393	544.29
267.621	543.11
267.85	541.84
268.079	542.16
268.307	540.85
268.536	540.24
268.765	541.24
268.993	542.04
269.222	541.31
269.451	540.42
269.679	538.33
269.908	539.25
270.137	539.64
270.365	539.2
270.594	538.55
270.822	538.82
271.051	539.75
271.279	539.96
271.508	540.84
271.736	541.55
271.965	542.11
272.193	542.87
272.422	542.93
272.65	542.67
272.879	543.22
273.107	542.73
273.336	542.24
273.564	541.51
273.792	539.09
274.021	538.36
274.249	537.65
274.477	536.22
274.706	534.85
274.934	532.62
275.162	531.16
275.391	530.62
275.619	530.35
275.847	528.89
276.075	527.58
276.304	527.11
276.532	524.84
276.76	524.11
276.988	523.33
277.216	523.33
277.445	524.65
277.673	522.6
277.901	520.6
278.129	519.58
278.357	521.09
278.585	520.35
278.813	518.51
279.041	518.24
279.269	517.13
279.497	516.44
279.725	515.18
279.954	512.71
280.182	514.07
280.41	514.15
280.637	513.22
280.865	510.44
281.093	509.85
281.321	510.62
281.549	509.13
281.777	508.73
282.005	508
282.233	507.4
282.461	507.24
282.689	506.95
282.916	506.24
283.144	505.62
283.372	505.69
283.6	505.42
283.828	504.29
284.055	504.93
284.283	504.76
284.511	504.69
284.739	505.09
284.966	504.95
285.194	503.2
285.422	502.82
285.649	502.49
285.877	501.02
286.105	500.35
286.332	502.38
286.56	501.31
286.788	501.35
287.015	501.8
287.243	500.25
287.47	499.36
287.698	499.87
287.925	500.4
288.153	499.96
288.381	500.53
288.608	500.29
288.836	497.55
289.063	497.51
289.29	496.49
289.518	495.49
289.745	494.16
289.973	494.02
290.2	493.98
290.428	491.76
290.655	491.98
290.882	491.64
291.11	491.25
291.337	491.51
291.564	490.65
291.792	490.22
292.019	489.2
292.246	489.07
292.473	486.82
292.701	484.85
292.928	483.95
293.155	483.07
293.382	481.76
293.61	481.18
293.837	479.64
294.064	479.56
294.291	478.38
294.518	477.25
294.745	477.49
294.972	479.53
295.2	479.36
295.427	480.45
295.654	478.49
295.881	478.67
296.108	477.91
296.335	477.45
296.562	476.58
296.789	476.05
297.016	476.42
297.243	475.78
297.47	473.89
297.697	474.67
297.924	472.71
298.151	472.25
298.378	471.62
298.604	471.8
298.831	471.96
299.058	471.51
299.285	471.84
299.512	470.73
299.739	470.69
299.966	470.22
300.192	467.27
300.419	467.64
300.646	466.73
300.873	465
301.099	463.58
301.326	462.87
301.553	463.07
301.78	463.18
302.006	462.2
302.233	461.31
302.46	459.65
302.686	460.96
302.913	460.69
303.14	462.4
303.366	463.89
303.593	463.29
303.819	463.31
304.046	462.89
304.272	461.16
304.499	461.84
304.725	462.04
304.952	461.95
305.179	461.31
305.405	460.53
305.631	460.33
305.858	458.07
306.084	457.89
306.311	457.49
306.537	457.8
306.764	457.42
306.99	456.8
307.216	456.56
307.443	457.84
307.669	457.87
307.895	457.47
308.122	456.62
308.348	457.89
308.574	457.69
308.801	457.07
309.027	454.89
309.253	456.18
309.479	455.4
309.706	454.56
309.932	452.73
310.158	452.15
310.384	452.31
310.61	451.35
310.837	451.13
311.063	451.44
311.289	451.07
311.515	452.71
311.741	451.09
311.967	451.11
312.193	451.58
312.419	452.55
312.645	451.93
312.871	451.16
313.097	451.04
313.323	450.73
313.549	451.44
313.775	452.93
314.001	451.29
314.227	452.13
314.453	452.96
314.679	452.36
314.905	452.87
315.131	454.25
315.357	454.64
315.583	455.91
315.809	456.62
316.034	456.11
316.26	456
316.486	457.18
316.712	456.76
316.938	456.44
317.163	457.22
317.389	457.07
317.615	457.16
317.841	457.93
318.066	457.84
318.292	458.82
318.518	459.75
318.743	459.56
318.969	459.82
319.195	460.35
319.42	461.44
319.646	463.25
319.872	464.13
320.097	464.31
320.323	464.49
320.548	465.15
320.774	466.36
320.999	468.82
321.225	470.05
321.45	471.47
321.676	472.47
321.901	473.58
322.127	473.98
322.352	475.47
322.578	477.55
322.803	479.87
323.029	482.15
323.254	481.85
323.479	481.29
323.705	482.33
323.93	484.02
324.155	485.67
324.381	487.55
324.606	489.24
324.831	491.42
325.057	494.05
325.282	495.38
325.507	496.16
325.732	499.67
325.958	502.4
326.183	505.71
326.408	508.25
326.633	511.75
326.858	513.62
327.084	516.11
327.309	518.75
327.534	520.27
327.759	524.04
327.984	527.16
328.209	529.89
328.434	532.78
328.659	535.05
328.884	537.35
329.109	540.29
329.334	543
329.559	546.25
329.784	548.4
330.009	551.98
330.234	554.49
330.459	559.09
330.684	563.09
330.909	567.04
331.134	571.44
331.359	577.42
331.584	581.27
331.809	586.58
332.034	590.55
332.259	595.87
332.483	600.56
332.708	604.93
332.933	608.62
333.158	612.44
333.383	617.84
333.607	622.62
333.832	625.95
334.057	630.22
334.282	635.69
334.506	641.05
334.731	646.64
334.956	652.15
335.18	658.53
335.405	665.44
335.63	670.64
335.854	675.15
336.079	681.64
336.303	688.11
336.528	695.6
336.753	699.96
336.977	706.82
337.202	712.96
337.426	718.87
337.651	726.16
337.875	732.24
338.1	739.29
338.324	745.91
338.549	751.09
338.773	757.78
338.997	763.56
339.222	770.84
339.446	777.69
339.671	783.55
339.895	792
340.119	798.18
340.344	804.55
340.568	811.44
340.792	820.27
341.017	828.49
341.241	836.02
341.465	842.98
341.689	851.18
341.914	858.51
342.138	868.11
342.362	875.22
342.586	882.65
342.811	892.69
343.035	902.02
343.259	910.98
343.483	920.44
343.707	928.55
343.931	939.11
344.155	948.02
344.38	956.2
344.604	965.6
344.828	976.33
345.052	986.82
345.276	994.2
345.5	1002.95
345.724	1010.78
345.948	1020.45
346.172	1029.67
346.396	1039.11
346.62	1048.56
346.844	1058.85
347.068	1067.89
347.292	1077.15
347.515	1087.11
347.739	1099.85
347.963	1110.96
348.187	1122.62
348.411	1130.85
348.635	1141.27
348.859	1150.25
349.082	1161.56
349.306	1172.22
349.53	1182.22
349.754	1192.47
349.977	1202.53
350.201	1210.75
350.425	1221.4
350.649	1231.56
350.872	1244.35
351.096	1255.85
351.32	1268.8
351.543	1282.33
351.767	1293.45
351.99	1305.53
352.214	1316.93
352.438	1328.49
352.661	1341.25
352.885	1351.35
353.108	1362.87
353.332	1375.4
353.555	1387.78
353.779	1398.73
354.002	1409.2
354.226	1422.87
354.449	1435.49
354.673	1446.78
354.896	1458.93
355.12	1470.76
355.343	1483.56
355.566	1496.93
355.79	1507.35
356.013	1518.25
356.237	1530.4
356.46	1542.45
356.683	1551.82
356.907	1562.62
357.13	1574.96
357.353	1586.85
357.576	1598.87
357.8	1610.78
358.023	1621.44
358.246	1636.16
358.469	1649.91
358.693	1661.31
358.916	1673.55
359.139	1688.98
359.362	1702.33
359.585	1714.44
359.808	1726.45
360.031	1738.07
360.255	1752.33
360.478	1764.85
360.701	1777.22
360.924	1790.84
361.147	1806.49
361.37	1819.2
361.593	1831.89
361.816	1844.33
362.039	1859.27
362.262	1874
362.485	1889.02
362.708	1900.91
362.931	1912.87
363.154	1924.53
363.377	1935.2
363.599	1948.84
363.822	1961.98
364.045	1976.04
364.268	1991.62
364.491	2004.8
364.714	2018.84
364.936	2031.33
365.159	2049.18
365.382	2066.38
365.605	2083.13
365.828	2102.42
366.05	2117.02
366.273	2132.51
366.496	2146.69
366.718	2162.31
366.941	2178.45
367.164	2195.65
367.386	2211.13
367.609	2225
367.832	2241.07
368.054	2256.05
368.277	2269
368.5	2283.4
368.722	2301.04
368.945	2317.31
369.167	2334.13
369.39	2351.53
369.612	2367.11
369.835	2386.31
370.057	2401.85
370.28	2418.05
370.502	2435.42
370.725	2452.29
370.947	2472.62
371.169	2489.98
371.392	2506.42
371.614	2523.85
371.837	2537
372.059	2551.09
372.281	2565.89
372.504	2584.42
372.726	2599.11
372.948	2612.75
373.171	2628.85
373.393	2643.76
373.615	2656.91
373.837	2675.13
374.06	2691.04
374.282	2712.24
374.504	2733.22
374.726	2752.09
374.948	2766.44
375.17	2786.78
375.393	2808.8
375.615	2827.62
375.837	2846.76
376.059	2867.05
376.281	2885.33
376.503	2904.42
376.725	2924.89
376.947	2941.53
377.169	2962.25
377.391	2985.33
377.613	3006.45
377.835	3026.95
378.057	3048.31
378.279	3069.96
378.501	3093.51
378.723	3116.07
378.945	3138.75
379.167	3158.11
379.389	3181.8
379.611	3206.2
379.833	3226.45
380.054	3251.29
380.276	3271.44
380.498	3293.24
380.72	3317.78
380.942	3342.76
381.163	3366.56
381.385	3389.18
381.607	3411.51
381.829	3436.29
382.05	3457.87
382.272	3486.98
382.494	3510.11
382.716	3539.2
382.937	3567.13
383.159	3589.91
383.381	3612.49
383.602	3636.44
383.824	3663.04
384.045	3690.96
384.267	3715.78
384.488	3746.02
384.71	3771.15
384.932	3795.56
385.153	3814.64
385.375	3839.04
385.596	3865.84
385.818	3893.05
386.039	3923
386.261	3950.93
386.482	3977.85
386.703	4007.36
386.925	4031.89
387.146	4058.98
387.368	4086.76
387.589	4120.05
387.81	4150.98
388.032	4179.2
388.253	4208.16
388.474	4233.91
388.696	4262.71
388.917	4295.6
389.138	4323.87
389.359	4352.35
389.581	4380.09
389.802	4412.47
390.023	4441.16
390.244	4470.11
390.465	4502.6
390.687	4530.64
390.908	4561.18
391.129	4590.75
391.35	4619.47
391.571	4648.33
391.792	4681
392.013	4713.53
392.234	4743.98
392.455	4778.33
392.677	4811
392.898	4841.85
393.119	4876.96
393.34	4906.73
393.561	4936.76
393.782	4966.62
394.003	5000.31
394.223	5032.73
394.444	5064.58
394.665	5094.95
394.886	5126.6
395.107	5156.47
395.328	5187.67
395.549	5217.53
395.77	5253.11
395.99	5287.65
396.211	5323.73
396.432	5357.07
396.653	5385.18
396.874	5419.49
397.094	5455.64
397.315	5485.4
397.536	5521.38
397.757	5553.6
397.977	5591.22
398.198	5624.87
398.419	5660.36
398.639	5692.2
398.86	5725.91
399.081	5762.18
399.301	5798.73
399.522	5830.87
399.742	5866.93
399.963	5900.02
400.184	5936.35
400.404	5969.8
400.625	6007.31
400.845	6038.62
401.066	6071.98
401.286	6107.35
401.507	6143.31
401.727	6173.75
401.948	6208.71
402.168	6244.53
402.388	6275.67
402.609	6311
402.829	6342.09
403.05	6371.4
403.27	6405.62
403.49	6438.93
403.711	6473.02
403.931	6506.07
404.151	6539.25
404.372	6573.71
404.592	6601.45
404.812	6635.33
405.032	6666.62
405.253	6699.56
405.473	6736.25
405.693	6771.07
405.913	6807.35
406.133	6841.95
406.353	6879.04
406.574	6916.91
406.794	6950.38
407.014	6990.33
407.234	7026.53
407.454	7062.71
407.674	7094.56
407.894	7131.6
408.114	7172.76
408.334	7206.2
408.554	7241.6
408.774	7277.69
408.994	7310.93
409.214	7346.55
409.434	7384.95
409.654	7425.2
409.874	7464.58
410.094	7508.84
410.314	7546.42
410.534	7579.53
410.754	7621.53
410.974	7663.8
411.193	7699.67
411.413	7738.07
411.633	7780.4
411.853	7819.49
412.073	7855.29
412.292	7889.95
412.512	7923.8
412.732	7958.76
412.952	7999.2
413.171	8034.75
413.391	8073.62
413.611	8120.15
413.831	8166.6
414.05	8206.04
414.27	8243.75
414.489	8286.49
414.709	8331.42
414.929	8380.69
415.148	8423.69
415.368	8469.18
415.587	8518.25
415.807	8561.09
416.026	8600.15
416.246	8637.02
416.465	8676.07
416.685	8720.87
416.904	8765.02
417.124	8807.49
417.343	8848.75
417.563	8894.98
417.782	8932.58
418.002	8973.09
418.221	9016.69
418.44	9065.56
418.66	9107.33
418.879	9152.75
419.098	9196.87
419.318	9245
419.537	9293.16
419.756	9335.65
419.976	9380.29
420.195	9423.38
420.414	9468.11
420.633	9512.89
420.853	9557.65
421.072	9603.62
421.291	9652.04
421.51	9702.65
421.729	9738.4
421.948	9777.85
422.168	9822.8
422.387	9863.11
422.606	9911.35
422.825	9952.2
423.044	9991.25
423.263	10029.02
423.482	10079.38
423.701	10123.38
423.92	10164.45
424.139	10216.44
424.358	10262.58
424.577	10308.33
424.796	10358.27
425.015	10402.35
425.234	10450.55
425.453	10499.49
425.672	10546.89
425.891	10586.44
426.11	10626.29
426.328	10669.29
426.547	10712.15
426.766	10756.58
426.985	10803.07
427.204	10852.49
427.422	10902.67
427.641	10948.78
427.86	10998.98
428.079	11042.51
428.297	11093.33
428.516	11147.56
428.735	11195.91
428.954	11242.11
429.172	11292.07
429.391	11339.24
429.61	11382.2
429.828	11429.51
430.047	11479.18
430.265	11524.53
430.484	11572.45
430.703	11622.64
430.921	11667.16
431.14	11711.87
431.358	11765.51
431.577	11814.09
431.795	11864.47
432.014	11916.33
432.232	11964.2
432.451	12013.65
432.669	12056.2
432.887	12105.8
433.106	12148.84
433.324	12199.11
433.543	12251.29
433.761	12296.89
433.979	12343.31
434.198	12386.09
434.416	12430.85
434.634	12478.33
434.853	12519.35
435.071	12571.29
435.289	12617.29
435.507	12665.36
435.726	12710.95
435.944	12758.38
436.162	12805.58
436.38	12850.53
436.598	12906.11
436.817	12952.16
437.035	12998.85
437.253	13046.44
437.471	13099.13
437.689	13141.47
437.907	13191.73
438.125	13242.11
438.343	13284.25
438.561	13337.67
438.78	13382.42
438.998	13423.8
439.216	13474.6
439.434	13521.65
439.652	13566.49
439.869	13604.38
440.087	13656.65
440.305	13702.31
440.523	13750.15
440.741	13802.27
440.959	13845.75
441.177	13901.76
441.395	13952.09
441.613	13993.51
441.831	14041.18
442.048	14090.96
442.266	14140.09
442.484	14187.02
442.702	14233.4
442.919	14276.24
443.137	14324.89
443.355	14372.38
443.573	14414.05
443.79	14465.53
444.008	14517.44
444.226	14566.73
444.443	14619.18
444.661	14670.51
444.879	14723.16
445.096	14771.42
445.314	14821.29
445.532	14870.6
445.749	14916.6
445.967	14971.4
446.184	15014.65
446.402	15063.87
446.619	15109.36
446.837	15155.67
447.054	15204.91
447.272	15244.64
447.489	15290.35
447.707	15337.27
447.924	15381.16
448.141	15434.73
448.359	15479.31
448.576	15525.51
448.794	15573.25
449.011	15623.24
449.228	15672.87
449.446	15722.38
449.663	15774.29
449.88	15823.53
450.098	15872
450.315	15920.55
450.532	15964.49
450.749	16015.56
450.967	16065.4
451.184	16119.89
451.401	16167.07
451.618	16210.45
451.835	16252.13
452.052	16299.35
452.27	16350.53
452.487	16402.51
452.704	16451.11
452.921	16495.33
453.138	16537.33
453.355	16581.47
453.572	16623.44
453.789	16670.73
454.006	16722.64
454.223	16768.22
454.44	16819.16
454.657	16860.96
454.874	16904.07
455.091	16950.13
455.308	16996.95
