Data from test1_MAYP1115451__13__10-17-13-748.txt Node

Date: Wed Jun 12 10:17:13 MDT 2024
User: Modes Lab
Spectrometer: MAYP111545
Trigger mode: 0
Integration Time (sec): 8.000000E-3
Scans to average: 5
Electric dark correction enabled: true
Nonlinearity correction enabled: false
Boxcar width: 5
XAxis mode: Wavelengths
Number of Pixels in Spectrum: 2068
>>>>>Begin Spectral Data<<<<<
165.214	162.3
165.449	161.06
165.683	169.9
165.918	179.51
166.152	186.2
166.387	191.25
166.621	122.8
166.856	160.78
167.09	179.62
167.325	204.18
167.559	220.87
167.794	234.62
168.028	243.55
168.263	244.58
168.497	244.55
168.732	246.27
168.966	247.05
169.2	249.04
169.435	250.64
169.669	251.58
169.903	252.45
170.138	254.8
170.372	256.64
170.606	257.42
170.841	259.13
171.075	260.69
171.309	261.45
171.544	263
171.778	264.55
172.012	266.93
172.246	268.38
172.48	269.75
172.715	271.11
172.949	273.31
173.183	275.33
173.417	276.87
173.651	277.64
173.885	278.8
174.119	280.02
174.354	280.22
174.588	279.75
174.822	280.22
175.056	280.16
175.29	280.07
175.524	278.91
175.758	279.11
175.992	279.87
176.226	279.47
176.46	279.38
176.694	280.58
176.928	281.45
177.162	282.65
177.396	283.75
177.63	285.8
177.864	286.09
178.097	288
178.331	289.82
178.565	291.11
178.799	292.78
179.033	293.22
179.267	293.29
179.5	293.45
179.734	294.69
179.968	295.98
180.202	296.98
180.436	298.24
180.669	300.13
180.903	300.13
181.137	301.22
181.371	302.22
181.604	303.67
181.838	304.85
182.072	306.53
182.305	307.58
182.539	308.56
182.772	309.42
183.006	310.36
183.24	309.85
183.473	313.07
183.707	313.69
183.94	313.87
184.174	314.44
184.408	316.04
184.641	317.38
184.875	318.04
185.108	318.64
185.342	318.93
185.575	320.09
185.808	321.73
186.042	320.96
186.275	321.51
186.509	323.11
186.742	326.18
186.976	326.64
187.209	327.35
187.442	328.56
187.676	329.91
187.909	331
188.142	332.55
188.376	334.24
188.609	335.22
188.842	337.53
189.076	339.2
189.309	339.53
189.542	341.09
189.775	343.25
190.009	345.6
190.242	347.35
190.475	349.29
190.708	351.55
190.941	353.87
191.174	354.95
191.408	356.07
191.641	358.65
191.874	361.02
192.107	364.36
192.34	366.38
192.573	368.22
192.806	370.02
193.039	371.47
193.272	373.11
193.505	374.4
193.738	377.45
193.971	378.4
194.204	379.64
194.437	380.78
194.67	381.22
194.903	382.8
195.136	384.11
195.369	386.16
195.602	389.38
195.835	392.04
196.068	394.09
196.301	396.49
196.533	399.16
196.766	401
196.999	402.24
197.232	405.31
197.465	406.36
197.698	409.13
197.93	410.64
198.163	411.76
198.396	413.42
198.629	413.58
198.861	414.15
199.094	416.35
199.327	418.91
199.559	421.29
199.792	421.78
200.025	424.4
200.257	426.25
200.49	428.35
200.723	430.53
200.955	432.95
201.188	437.13
201.42	440.42
201.653	442.67
201.886	444.76
202.118	447.4
202.351	449.84
202.583	453.29
202.816	454.36
203.048	457.51
203.281	458.8
203.513	460.96
203.745	463.2
203.978	464.69
204.21	466.93
204.443	467.73
204.675	469.62
204.907	472.85
205.14	475.04
205.372	478.98
205.605	480.71
205.837	484.18
206.069	485.35
206.302	487.47
206.534	489.51
206.766	491.91
206.998	494.51
207.231	496.35
207.463	498.24
207.695	499.75
207.927	501.24
208.159	502.93
208.392	504.25
208.624	506.8
208.856	508.25
209.088	510.96
209.32	512.76
209.552	515.24
209.784	518.78
210.017	521.22
210.249	523.22
210.481	525.22
210.713	527.71
210.945	529.67
211.177	531.51
211.409	533.6
211.641	534.56
211.873	536.49
212.105	538.93
212.337	539.51
212.569	541.04
212.801	542.91
213.033	544.33
213.264	545.71
213.496	547.89
213.728	549.95
213.96	550.8
214.192	552.36
214.424	553.84
214.656	555.73
214.887	558.6
215.119	560.11
215.351	561.29
215.583	562.55
215.815	565.36
216.046	567.47
216.278	568.67
216.51	571.38
216.741	574.38
216.973	576.07
217.205	576.95
217.436	578.15
217.668	579.85
217.9	581.62
218.131	582.98
218.363	583.98
218.595	584.93
218.826	587.04
219.058	589.75
219.289	590.64
219.521	592.15
219.752	593.36
219.984	594
220.215	594.44
220.447	596
220.678	596.45
220.91	598.15
221.141	599.4
221.373	599.49
221.604	598.25
221.836	598.8
222.067	598.93
222.298	600.45
222.53	601.51
222.761	602.58
222.993	601.78
223.224	604.91
223.455	605.44
223.686	606.24
223.918	607.27
224.149	608.47
224.38	610.58
224.612	611.91
224.843	613.2
225.074	613.65
225.305	615.18
225.536	617.95
225.768	618.18
225.999	618
226.23	618.82
226.461	619.25
226.692	620.27
226.923	619.82
227.155	621.76
227.386	621.09
227.617	621.76
227.848	621.56
228.079	622.45
228.31	623.2
228.541	624.13
228.772	625.05
229.003	625.53
229.234	625.4
229.465	625.33
229.696	623.27
229.927	624.24
230.158	624.36
230.389	624.33
230.62	622.53
230.85	622.04
231.081	621.51
231.312	620.87
231.543	620.2
231.774	620.55
232.005	620.98
232.236	621.95
232.466	621.2
232.697	622.53
232.928	622.11
233.159	622.58
233.389	622.44
233.62	623.05
233.851	623.36
234.082	624.96
234.312	625.05
234.543	625.6
234.774	624.67
235.004	625.15
235.235	623.95
235.466	624.49
235.696	625.31
235.927	626.09
236.157	625.35
236.388	625.05
236.618	624.73
236.849	624.55
237.08	622.98
237.31	623.49
237.541	623.87
237.771	623.25
238.002	622.53
238.232	621.49
238.463	620.76
238.693	620.64
238.923	619.6
239.154	618.75
239.384	617.05
239.615	616.91
239.845	616.71
240.075	615.65
240.306	614.69
240.536	614.78
240.766	614.29
240.997	613.73
241.227	613.31
241.457	613.02
241.687	611.89
241.918	613.16
242.148	612.58
242.378	612
242.608	611.51
242.839	612.76
243.069	611.84
243.299	611.18
243.529	611.18
243.759	610.89
243.989	611.51
244.22	612.33
244.45	610.62
244.68	610.51
244.91	610.44
245.14	610.64
245.37	609.93
245.6	608.89
245.83	609.51
246.06	608.29
246.29	606.53
246.52	605.75
246.75	605
246.98	605.29
247.21	604.42
247.44	603.35
247.67	601.93
247.9	600.78
248.13	601.75
248.359	601.18
248.589	599.6
248.819	600.38
249.049	598.53
249.279	597.85
249.509	596.49
249.738	597.35
249.968	596.29
250.198	595.76
250.428	595.89
250.657	594.24
250.887	592.6
251.117	591.76
251.347	591.29
251.576	591.91
251.806	591.29
252.036	590.58
252.265	589.62
252.495	589.02
252.725	588.22
252.954	587.69
253.184	587.85
253.413	587.33
253.643	588.55
253.873	587.69
254.102	585.76
254.332	585.33
254.561	585.89
254.791	584.09
255.02	583.8
255.25	582.55
255.479	580.96
255.708	578.69
255.938	577.69
256.167	576.16
256.397	574.82
256.626	574.95
256.856	573.65
257.085	572.67
257.314	572.64
257.544	573.2
257.773	573.56
258.002	573.49
258.232	574.13
258.461	573.69
258.69	572.87
258.919	573.47
259.149	572.67
259.378	572.44
259.607	571.15
259.836	570.89
260.065	568.36
260.295	567.35
260.524	565.65
260.753	564.25
260.982	564.02
261.211	564.71
261.44	562.84
261.669	562.69
261.899	561.55
262.128	560.33
262.357	558.45
262.586	558.65
262.815	557.96
263.044	557.76
263.273	560.47
263.502	560.4
263.731	559.76
263.96	558.96
264.189	557.73
264.418	556.35
264.646	556.62
264.875	555.91
265.104	554.69
265.333	553.4
265.562	552.78
265.791	548.44
266.02	546.27
266.249	543.95
266.477	542.8
266.706	540.42
266.935	540.69
267.164	540.11
267.393	540.47
267.621	540.44
267.85	539.76
268.079	539.22
268.307	539.69
268.536	538.65
268.765	538.96
268.993	539.11
269.222	540.2
269.451	539.04
269.679	538.33
269.908	538.02
270.137	537.84
270.365	539.07
270.594	539.11
270.822	540.18
271.051	542.36
271.279	542.09
271.508	541.87
271.736	542.44
271.965	543.31
272.193	542.87
272.422	542.89
272.65	541.96
272.879	541.71
273.107	540.71
273.336	539.65
273.564	537.6
273.792	537.05
274.021	536.47
274.249	535.47
274.477	533.31
274.706	532.44
274.934	530.35
275.162	530.36
275.391	528.95
275.619	528.33
275.847	526.6
276.075	526.15
276.304	523.8
276.532	523.35
276.76	522.27
276.988	522.6
277.216	521.56
277.445	521.44
277.673	519.6
277.901	519.13
278.129	518.91
278.357	518.78
278.585	518.55
278.813	519.05
279.041	518.2
279.269	518.27
279.497	517.42
279.725	516.44
279.954	515.45
280.182	515.78
280.41	514.89
280.637	514.18
280.865	513.13
281.093	512.02
281.321	511.29
281.549	511.09
281.777	509.95
282.005	510
282.233	511.44
282.461	511.85
282.689	511.53
282.916	511.62
283.144	510.25
283.372	510.18
283.6	509.65
283.828	508.4
284.055	508.24
284.283	508.24
284.511	507.11
284.739	505.84
284.966	503.8
285.194	502.65
285.422	500.18
285.649	499.82
285.877	497.96
286.105	498.6
286.332	498.78
286.56	498.31
286.788	498.09
287.015	497.64
287.243	498.11
287.47	498.33
287.698	499.13
287.925	500
288.153	499.62
288.381	501.36
288.608	499.36
288.836	499.69
289.063	499.45
289.29	498
289.518	497.96
289.745	496.27
289.973	496.47
290.2	494.62
290.428	494.2
290.655	493.73
290.882	491.16
291.11	490.31
291.337	488.98
291.564	488.44
291.792	487.96
292.019	486.29
292.246	485.25
292.473	483.25
292.701	482.73
292.928	481.29
293.155	480.69
293.382	480.75
293.61	480.87
293.837	480.55
294.064	477.96
294.291	477.78
294.518	478.13
294.745	478.78
294.972	478.44
295.2	478.27
295.427	478.53
295.654	478.04
295.881	477.75
296.108	476.33
296.335	474.82
296.562	476.07
296.789	475.04
297.016	474.6
297.243	474.78
297.47	475.47
297.697	474.42
297.924	472.93
298.151	471.96
298.378	471.47
298.604	471.64
298.831	471.56
299.058	470.64
299.285	470.13
299.512	468.35
299.739	466.49
299.966	465.71
300.192	465.53
300.419	465.78
300.646	466.87
300.873	466.04
301.099	465.69
301.326	464.95
301.553	464.65
301.78	465.15
302.006	465.45
302.233	465.69
302.46	464.45
302.686	464.55
302.913	463.15
303.14	461.56
303.366	461.24
303.593	461.38
303.819	462.11
304.046	460.51
304.272	459.58
304.499	459.71
304.725	459.93
304.952	459.49
305.179	458.82
305.405	459.85
305.631	460.78
305.858	460.47
306.084	459.47
306.311	458.27
306.537	458.84
306.764	459.11
306.99	458.95
307.216	457.65
307.443	457.24
307.669	456.58
307.895	455.09
308.122	454.29
308.348	453.96
308.574	453.07
308.801	452.31
309.027	452.13
309.253	450.65
309.479	450.2
309.706	450.16
309.932	450.64
310.158	450.55
310.384	451.45
310.61	451.8
310.837	452.6
311.063	453.02
311.289	453.35
311.515	453.16
311.741	453.71
311.967	454.2
312.193	454.07
312.419	454.65
312.645	455.11
312.871	454.58
313.097	453.93
313.323	453.42
313.549	455.05
313.775	455.22
314.001	455.73
314.227	454.69
314.453	452.95
314.679	452.09
314.905	452.71
315.131	453.05
315.357	452.98
315.583	453.2
315.809	452.58
316.034	451.96
316.26	453.67
316.486	454.02
316.712	455.35
316.938	456.49
317.163	457.2
317.389	456.15
317.615	456.47
317.841	457.62
318.066	456.85
318.292	458.02
318.518	457.89
318.743	457.18
318.969	458.29
319.195	459
319.42	459.22
319.646	460.58
319.872	462.18
320.097	463.49
320.323	464.35
320.548	467.33
320.774	469.29
320.999	470.24
321.225	471.4
321.45	472.29
321.676	472.33
321.901	474.69
322.127	475.58
322.352	477.62
322.578	477.98
322.803	478.49
323.029	478.44
323.254	479.11
323.479	481.78
323.705	483.31
323.93	483.76
324.155	487.93
324.381	489.64
324.606	492.18
324.831	494.25
325.057	497.36
325.282	501.05
325.507	504.44
325.732	507.4
325.958	508.56
326.183	511.89
326.408	514.44
326.633	516.93
326.858	519.98
327.084	520.53
327.309	522.33
327.534	523.76
327.759	524.96
327.984	528.04
328.209	529.87
328.434	533.93
328.659	536.73
328.884	540.87
329.109	542.58
329.334	545.35
329.559	550.42
329.784	554.27
330.009	559.07
330.234	562.73
330.459	564.58
330.684	568.8
330.909	571.64
331.134	575.8
331.359	579.4
331.584	583.96
331.809	587.76
332.034	591.95
332.259	596.82
332.483	600.98
332.708	605.96
332.933	610.45
333.158	614.33
333.383	619.07
333.607	624.04
333.832	629.45
334.057	633.38
334.282	637.95
334.506	642.24
334.731	646.2
334.956	651.73
335.18	657
335.405	662.4
335.63	669.29
335.854	674.49
336.079	679.58
336.303	685.15
336.528	691.71
336.753	698.07
336.977	704.27
337.202	710.24
337.426	715.67
337.651	722.91
337.875	730.11
338.1	736.02
338.324	742.6
338.549	749.09
338.773	755.91
338.997	762.6
339.222	769
339.446	777.56
339.671	786.22
339.895	792.73
340.119	799.78
340.344	808.15
340.568	814.73
340.792	823.45
341.017	831.64
341.241	838.58
341.465	846.31
341.689	854.35
341.914	861.84
342.138	868.49
342.362	877.04
342.586	885.2
342.811	892.42
343.035	901.8
343.259	908.64
343.483	917.96
343.707	925.98
343.931	934.07
344.155	944.55
344.38	952.13
344.604	961.22
344.828	969.67
345.052	979.2
345.276	987.35
345.5	995.49
345.724	1006.44
345.948	1014.29
346.172	1025.69
346.396	1035.67
346.62	1044.09
346.844	1054.15
347.068	1064.25
347.292	1074.84
347.515	1085.27
347.739	1100.71
347.963	1111.04
348.187	1121.93
348.411	1132.22
348.635	1140.93
348.859	1151.49
349.082	1163
349.306	1174.53
349.53	1185.25
349.754	1196.65
349.977	1206.44
350.201	1212.49
350.425	1224.18
350.649	1235.87
350.872	1246.84
351.096	1258.31
351.32	1270.35
351.543	1281.91
351.767	1295.31
351.99	1305.71
352.214	1314.25
352.438	1325.11
352.661	1338
352.885	1348.62
353.108	1357.73
353.332	1369.84
353.555	1381.85
353.779	1391.51
354.002	1401.49
354.226	1412.02
354.449	1423.91
354.673	1439.53
354.896	1451.82
355.12	1463.44
355.343	1476.78
355.566	1490.13
355.79	1502.4
356.013	1514.84
356.237	1527.82
356.46	1540.13
356.683	1551.76
356.907	1565.31
357.13	1575.78
357.353	1587.04
357.576	1597.87
357.8	1611.36
358.023	1623.36
358.246	1635.89
358.469	1647.69
358.693	1661.22
358.916	1673.84
359.139	1686.65
359.362	1698.09
359.585	1712.53
359.808	1729.27
360.031	1743.67
360.255	1754.44
360.478	1767.71
360.701	1780.04
360.924	1795.38
361.147	1809.75
361.37	1824.58
361.593	1838.09
361.816	1852.18
362.039	1864
362.262	1875.69
362.485	1889.87
362.708	1903.18
362.931	1915.78
363.154	1930.25
363.377	1941.49
363.599	1953.36
363.822	1965.78
364.045	1977.15
364.268	1991.51
364.491	2005.64
364.714	2018.98
364.936	2032.4
365.159	2047.55
365.382	2062.05
365.605	2076.69
365.828	2096.07
366.05	2109.98
366.273	2125.85
366.496	2144.49
366.718	2159.25
366.941	2178.35
367.164	2195.25
367.386	2212.11
367.609	2225.87
367.832	2243.78
368.054	2260.35
368.277	2273.58
368.5	2290.95
368.722	2306.05
368.945	2320.91
369.167	2338.35
369.39	2350.6
369.612	2365.69
369.835	2381.51
370.057	2401.02
370.28	2415.24
370.502	2432.13
370.725	2447.4
370.947	2465.62
371.169	2485.76
371.392	2502.27
371.614	2517.87
371.837	2534.93
372.059	2551.38
372.281	2570.13
372.504	2586.73
372.726	2603.38
372.948	2619.58
373.171	2638.76
373.393	2655.51
373.615	2668.55
373.837	2687.38
374.06	2708.09
374.282	2727.4
374.504	2747.13
374.726	2763.53
374.948	2781.33
375.17	2800.85
375.393	2820.64
375.615	2841.44
375.837	2859.71
376.059	2879.22
376.281	2897.64
376.503	2913.44
376.725	2929.44
376.947	2946.38
377.169	2964.95
377.391	2982.18
377.613	3004.24
377.835	3024.45
378.057	3040.8
378.279	3061.85
378.501	3084.42
378.723	3102.29
378.945	3125.35
379.167	3149.82
379.389	3173.05
379.611	3197.4
379.833	3220.87
380.054	3241.8
380.276	3264.22
380.498	3290.2
380.72	3315.16
380.942	3339.4
381.163	3367
381.385	3390.13
381.607	3414.31
381.829	3440.51
382.05	3464.58
382.272	3491.07
382.494	3517.13
382.716	3541.78
382.937	3564.42
383.159	3589.53
383.381	3614.11
383.602	3640.42
383.824	3666.11
384.045	3693.18
384.267	3719.2
384.488	3745.33
384.71	3771.82
384.932	3795.71
385.153	3821.29
385.375	3850.45
385.596	3874.04
385.818	3900.65
386.039	3927.75
386.261	3955.25
386.482	3981.49
386.703	4009.09
386.925	4035.25
387.146	4062.95
387.368	4094.15
387.589	4119.78
387.81	4148.05
388.032	4178.38
388.253	4208.24
388.474	4234.76
388.696	4261.89
388.917	4291.29
389.138	4318.49
389.359	4352.16
389.581	4382.16
389.802	4410.98
390.023	4444.18
390.244	4468.64
390.465	4496.73
390.687	4524.27
390.908	4556.55
391.129	4588.93
391.35	4618.38
391.571	4649.6
391.792	4677.62
392.013	4705.55
392.234	4734.75
392.455	4766.31
392.677	4802.33
392.898	4834.87
393.119	4869.31
393.34	4896.93
393.561	4925.36
393.782	4957.76
394.003	4991.95
394.223	5022.45
394.444	5059.56
394.665	5094.18
394.886	5126.64
395.107	5157.22
395.328	5189.18
395.549	5221.44
395.77	5257.53
395.99	5293.35
396.211	5331.89
396.432	5359.24
396.653	5390.53
396.874	5421.73
397.094	5453.53
397.315	5487.91
397.536	5519.56
397.757	5554.24
397.977	5589.4
398.198	5628.33
398.419	5661.47
398.639	5693.04
398.86	5731.29
399.081	5765.6
399.301	5801.35
399.522	5834.11
399.742	5868.62
399.963	5902.13
400.184	5934.53
400.404	5963.67
400.625	5990.11
400.845	6026.2
401.066	6059.6
401.286	6095
401.507	6132.69
401.727	6166.8
401.948	6202.91
402.168	6233.56
402.388	6268.56
402.609	6307.33
402.829	6345.33
403.05	6383.82
403.27	6415.98
403.49	6449.18
403.711	6482.71
403.931	6515.85
404.151	6546.24
404.372	6581.33
404.592	6615.4
404.812	6652.96
405.032	6684.27
405.253	6715.73
405.473	6747.13
405.693	6781.73
405.913	6816.49
406.133	6850.65
406.353	6887.95
406.574	6925.85
406.794	6959.85
407.014	6999.75
407.234	7034.05
407.454	7070.04
407.674	7101.29
407.894	7137.75
408.114	7174.24
408.334	7210.56
408.554	7245.56
408.774	7278.53
408.994	7311.6
409.214	7348.13
409.434	7380.35
409.654	7415.13
409.874	7450.22
410.094	7492.13
410.314	7530.73
410.534	7566.87
410.754	7605.13
410.974	7643.93
411.193	7681.13
411.413	7724.67
411.633	7763.82
411.853	7804.29
412.073	7846.44
412.292	7884.16
412.512	7921.4
412.732	7957.22
412.952	7996.8
413.171	8035.75
413.391	8077.31
413.611	8122.42
413.831	8163.76
414.05	8206.04
414.27	8248.02
414.489	8287.69
414.709	8331.36
414.929	8378.64
415.148	8423.15
415.368	8469.44
415.587	8508.62
415.807	8546.02
416.026	8589.09
416.246	8630.49
416.465	8672.47
416.685	8716.96
416.904	8761.6
417.124	8804.25
417.343	8848.15
417.563	8895.44
417.782	8936.4
418.002	8983.13
418.221	9028.55
418.44	9068.56
418.66	9113.6
418.879	9160.69
419.098	9201.71
419.318	9246.76
419.537	9296.27
419.756	9339.76
419.976	9378.02
420.195	9422.09
420.414	9466.15
420.633	9514.91
420.853	9560.09
421.072	9600.78
421.291	9640.27
421.51	9686.31
421.729	9730.93
421.948	9769.18
422.168	9813.47
422.387	9856.85
422.606	9900.07
422.825	9944.71
423.044	9985.56
423.263	10030.89
423.482	10071.8
423.701	10121.31
423.92	10167.65
424.139	10210.69
424.358	10258.44
424.577	10299.42
424.796	10347.82
425.015	10397.64
425.234	10443.33
425.453	10495.05
425.672	10536
425.891	10590.29
426.11	10636.18
426.328	10678.69
426.547	10722.85
426.766	10767.16
426.985	10816.55
427.204	10860.09
427.422	10903.22
427.641	10952.87
427.86	10993.98
428.079	11047
428.297	11090.6
428.516	11135.2
428.735	11188.4
428.954	11236.8
429.172	11284.07
429.391	11334.62
429.61	11388.35
429.828	11441.71
430.047	11487.8
430.265	11531.53
430.484	11575.35
430.703	11621.16
430.921	11668.6
431.14	11712.73
431.358	11760.65
431.577	11812.02
431.795	11857.2
432.014	11906.2
432.232	11951.76
432.451	11998.84
432.669	12057.22
432.887	12105.27
433.106	12151.2
433.324	12199.35
433.543	12244.76
433.761	12289.82
433.979	12340.47
434.198	12387.82
434.416	12431.6
434.634	12476.29
434.853	12523.6
435.071	12565.96
435.289	12611.55
435.507	12667.33
435.726	12713.55
435.944	12754.02
436.162	12806.87
436.38	12847.35
436.598	12896.75
436.817	12938.82
437.035	12984.85
437.253	13029.02
437.471	13076.89
437.689	13131.73
437.907	13166.45
438.125	13216.4
438.343	13273.87
438.561	13322.33
438.78	13372.4
438.998	13415.11
439.216	13468.96
439.434	13522.67
439.652	13572.35
439.869	13618.6
440.087	13657.76
440.305	13714.42
440.523	13763.8
440.741	13811.82
440.959	13858.16
441.177	13907.6
441.395	13955.2
441.613	14002.33
441.831	14044.36
442.048	14092.22
442.266	14135.96
442.484	14183.8
442.702	14232.07
442.919	14272.84
443.137	14319.8
443.355	14362.53
443.573	14412.93
443.79	14469.67
444.008	14515.58
444.226	14568.09
444.443	14619.42
444.661	14673.91
444.879	14722.35
445.096	14772.44
445.314	14823.35
445.532	14874.76
445.749	14932.22
445.967	14976.22
446.184	15021.07
446.402	15072.93
446.619	15112.73
446.837	15150.6
447.054	15193.33
447.272	15247
447.489	15286.42
447.707	15331.25
447.924	15375.25
448.141	15418.09
448.359	15467.25
448.576	15513.95
448.794	15558.62
449.011	15612.27
449.228	15666.91
449.446	15719.38
449.663	15761.6
449.88	15812.31
450.098	15862.62
450.315	15911.98
450.532	15957.4
450.749	16008.44
450.967	16060.55
451.184	16109.65
451.401	16155.67
451.618	16206.67
451.835	16253.05
452.052	16305.45
452.27	16355.6
452.487	16399.07
452.704	16441.35
452.921	16488.15
453.138	16527.98
453.355	16573.71
453.572	16625.47
453.789	16683.11
454.006	16731.16
454.223	16777.09
454.44	16825.53
454.657	16875.35
454.874	16927.78
455.091	16977.93
455.308	17029.55
