Data from test1_MAYP1115451__38__10-17-21-899.txt Node

Date: Wed Jun 12 10:17:21 MDT 2024
User: Modes Lab
Spectrometer: MAYP111545
Trigger mode: 0
Integration Time (sec): 8.000000E-3
Scans to average: 5
Electric dark correction enabled: true
Nonlinearity correction enabled: false
Boxcar width: 5
XAxis mode: Wavelengths
Number of Pixels in Spectrum: 2068
>>>>>Begin Spectral Data<<<<<
165.214	163.23
165.449	162.82
165.683	172.07
165.918	179.88
166.152	186.47
166.387	191.75
166.621	123.73
166.856	162.24
167.09	181.49
167.325	205
167.559	221.17
167.794	236.17
168.028	244.15
168.263	244.46
168.497	245.22
168.732	246.04
168.966	247.08
169.2	248.38
169.435	250.68
169.669	250.97
169.903	253.18
170.138	254.51
170.372	255.75
170.606	257.44
170.841	260.02
171.075	261.28
171.309	262.37
171.544	264.33
171.778	265.77
172.012	267.88
172.246	269.77
172.48	271.84
172.715	274.37
172.949	275.31
173.183	276.84
173.417	277.58
173.651	278.88
173.885	280.44
174.119	281.09
174.354	282.17
174.588	281.44
174.822	282
175.056	281.91
175.29	281.77
175.524	281.44
175.758	282.26
175.992	283.44
176.226	283.86
176.46	284.31
176.694	285.06
176.928	285.48
177.162	286.77
177.396	287.18
177.63	288.68
177.864	288.82
178.097	290.62
178.331	291.13
178.565	291.48
178.799	292.62
179.033	293.4
179.267	293.75
179.5	294.55
179.734	294.66
179.968	296.91
180.202	297.02
180.436	297.88
180.669	297.71
180.903	297.82
181.137	299.02
181.371	300.71
181.604	301.29
181.838	302.11
182.072	303.18
182.305	304.97
182.539	305.26
182.772	306.84
183.006	308.75
183.24	310.75
183.473	314.28
183.707	316.08
183.94	316.02
184.174	317.28
184.408	318.58
184.641	319.71
184.875	320.08
185.108	321.04
185.342	322.37
185.575	323.55
185.808	324.64
186.042	323.75
186.275	324.55
186.509	326.31
186.742	327.86
186.976	329.42
187.209	330.02
187.442	331.73
187.676	333.57
187.909	333.68
188.142	334.17
188.376	335.6
188.609	337.8
188.842	338.84
189.076	340.33
189.309	341.17
189.542	342.15
189.775	344.09
190.009	346.53
190.242	348.31
190.475	350.91
190.708	353.2
190.941	354.69
191.174	356.24
191.408	358.22
191.641	359.4
191.874	361.64
192.107	363.69
192.34	366.04
192.573	366.84
192.806	368.64
193.039	369.77
193.272	371.73
193.505	373.8
193.738	375.98
193.971	377.71
194.204	380.77
194.437	382.53
194.67	384.89
194.903	386.51
195.136	388.17
195.369	389.57
195.602	390.73
195.835	393.15
196.068	395.38
196.301	396.95
196.533	398.49
196.766	399.37
196.999	402.06
197.232	403.49
197.465	404.95
197.698	406.93
197.93	409.62
198.163	412.04
198.396	413.31
198.629	414.71
198.861	416.69
199.094	419
199.327	422.09
199.559	423.8
199.792	425.93
200.025	429.17
200.257	431.18
200.49	433.4
200.723	435.48
200.955	438.46
201.188	440.48
201.42	442.04
201.653	444.31
201.886	446.28
202.118	448.68
202.351	450.69
202.583	453.02
202.816	456.78
203.048	458.88
203.281	461.77
203.513	463.18
203.745	466.98
203.978	469.82
204.21	472.82
204.443	475.02
204.675	477.33
204.907	479.75
205.14	481.48
205.372	481.98
205.605	483.4
205.837	485.89
206.069	488.06
206.302	489
206.534	489.97
206.766	491.15
206.998	491.97
207.231	493.11
207.463	495.2
207.695	498.08
207.927	500.71
208.159	503.09
208.392	504.4
208.624	507.49
208.856	509.11
209.088	511.98
209.32	514.46
209.552	516.02
209.784	518.8
210.017	521.09
210.249	522.44
210.481	525.11
210.713	528.38
210.945	531.15
211.177	531.24
211.409	532.35
211.641	534.86
211.873	535.46
212.105	538.6
212.337	540.8
212.569	541.53
212.801	544.06
213.033	545.22
213.264	545.13
213.496	546.64
213.728	548.55
213.96	551.82
214.192	552.86
214.424	555.98
214.656	558.26
214.887	558.75
215.119	561.38
215.351	561.77
215.583	563.62
215.815	566.24
216.046	567.53
216.278	569.46
216.51	572.13
216.741	573.31
216.973	573.82
217.205	574.37
217.436	577.29
217.668	579.15
217.9	580.89
218.131	581.8
218.363	583.4
218.595	584.84
218.826	587.35
219.058	587.04
219.289	588.91
219.521	591.06
219.752	592.98
219.984	593.4
220.215	594.22
220.447	595.8
220.678	597.62
220.91	597.37
221.141	598.84
221.373	599.55
221.604	600.91
221.836	602.02
222.067	601.73
222.298	602.51
222.53	603.04
222.761	603.62
222.993	604.37
223.224	606.13
223.455	608.17
223.686	608.68
223.918	609.69
224.149	610.58
224.38	611.55
224.612	613.13
224.843	613.55
225.074	616.4
225.305	619.33
225.536	619.49
225.768	619.86
225.999	619.97
226.23	620.09
226.461	620.04
226.692	621.49
226.923	622.02
227.155	624.58
227.386	626.15
227.617	624.75
227.848	623.97
228.079	626.8
228.31	626.75
228.541	627
228.772	628.26
229.003	628.66
229.234	627.46
229.465	627.71
229.696	627.08
229.927	626.8
230.158	628.15
230.389	627.33
230.62	626.06
230.85	624.73
231.081	625.26
231.312	624.33
231.543	624.22
231.774	624.93
232.005	624.89
232.236	623.62
232.466	623.04
232.697	621.33
232.928	622.29
233.159	621.6
233.389	623.35
233.62	622.86
233.851	623.4
234.082	622.89
234.312	622.13
234.543	622.29
234.774	622.86
235.004	623.13
235.235	624.28
235.466	622.75
235.696	622.82
235.927	620.88
236.157	620.33
236.388	620.91
236.618	622.09
236.849	622.93
237.08	623.8
237.31	623.58
237.541	623.88
237.771	622.13
238.002	623.66
238.232	621.35
238.463	623.22
238.693	624.17
238.923	622.48
239.154	620.62
239.384	620.26
239.615	618.24
239.845	618.2
240.075	618.69
240.306	619.58
240.536	617.91
240.766	619.35
240.997	617.33
241.227	616.04
241.457	615.24
241.687	617.42
241.918	617.17
242.148	617.55
242.378	617
242.608	613.88
242.839	612.95
243.069	612.68
243.299	611.97
243.529	613.86
243.759	613.98
243.989	614.46
244.22	612.82
244.45	610.77
244.68	609.22
244.91	608.37
245.14	608.48
245.37	608.95
245.6	608.77
245.83	608.6
246.06	606.64
246.29	606.88
246.52	606.58
246.75	604.44
246.98	604.8
247.21	604.84
247.44	604.15
247.67	603.66
247.9	602.93
248.13	602.55
248.359	601.48
248.589	599.75
248.819	598.22
249.049	597.22
249.279	597.98
249.509	597.02
249.738	596.58
249.968	595.84
250.198	595.91
250.428	594.88
250.657	592.71
250.887	592.02
251.117	593.44
251.347	592.68
251.576	592.42
251.806	591.08
252.036	592
252.265	590.77
252.495	590.89
252.725	590.46
252.954	589.4
253.184	589.22
253.413	589.55
253.643	587.28
253.873	587.17
254.102	586.97
254.332	586.84
254.561	584.62
254.791	583.86
255.02	583.73
255.25	583.04
255.479	583.73
255.708	584.06
255.938	582.89
256.167	582.08
256.397	580.58
256.626	578.48
256.856	578.28
257.085	578.4
257.314	578.78
257.544	577.17
257.773	576.26
258.002	574.98
258.232	573.68
258.461	572.98
258.69	572.98
258.919	573.51
259.149	574.24
259.378	573.08
259.607	572.09
259.836	570.53
260.065	569.75
260.295	569.09
260.524	568.33
260.753	567.86
260.982	568.22
261.211	567.78
261.44	566.75
261.669	566.38
261.899	566.57
262.128	565.44
262.357	564.75
262.586	564.11
262.815	564.22
263.044	563.04
263.273	565.31
263.502	563.91
263.731	563.33
263.96	561.77
264.189	560.57
264.418	558.42
264.646	557.89
264.875	557
265.104	555.97
265.333	554.73
265.562	554.88
265.791	551.38
266.02	550.55
266.249	550.04
266.477	548.88
266.706	547.48
266.935	546.77
267.164	546.57
267.393	546.17
267.621	545.53
267.85	544.88
268.079	544.33
268.307	541.91
268.536	541
268.765	539.28
268.993	539.71
269.222	540.24
269.451	540.04
269.679	539.11
269.908	538.62
270.137	538.62
270.365	538
270.594	538.24
270.822	539.51
271.051	539.98
271.279	540.38
271.508	540.4
271.736	540.51
271.965	541.91
272.193	542.15
272.422	542.42
272.65	541.71
272.879	542.24
273.107	541.53
273.336	541.48
273.564	540.15
273.792	539.82
274.021	538.2
274.249	535.26
274.477	532.71
274.706	531.24
274.934	531.11
275.162	531.09
275.391	530.37
275.619	528.51
275.847	527.62
276.075	526.68
276.304	525.11
276.532	523.88
276.76	525.37
276.988	525.22
277.216	525.46
277.445	524.31
277.673	523.26
277.901	522.55
278.129	522
278.357	520.58
278.585	520.84
278.813	520.62
279.041	522.09
279.269	520.37
279.497	521.37
279.725	520.55
279.954	519.11
280.182	518.11
280.41	516.18
280.637	514.98
280.865	516
281.093	515.06
281.321	515.68
281.549	514.95
281.777	513.89
282.005	511.08
282.233	511.68
282.461	512.8
282.689	512.46
282.916	512.37
283.144	512.73
283.372	511.68
283.6	511.98
283.828	509.78
284.055	507.89
284.283	507.64
284.511	506.97
284.739	505.44
284.966	503.91
285.194	503.38
285.422	503.18
285.649	502.13
285.877	500.71
286.105	498.89
286.332	499.68
286.56	499.48
286.788	499.2
287.015	500.66
287.243	500.28
287.47	497.93
287.698	497.62
287.925	496.97
288.153	496.66
288.381	497.11
288.608	497.18
288.836	495.86
289.063	494.88
289.29	494.78
289.518	493.37
289.745	491.84
289.973	493
290.2	492.33
290.428	492.09
290.655	491
290.882	489.31
291.11	488.26
291.337	488.02
291.564	488
291.792	486.98
292.019	485.4
292.246	486.97
292.473	486.15
292.701	485.73
292.928	484.46
293.155	485.15
293.382	485.35
293.61	484.62
293.837	483.57
294.064	483.88
294.291	482.84
294.518	482.98
294.745	480.93
294.972	479.73
295.2	478.95
295.427	479.78
295.654	478.38
295.881	477.37
296.108	476.51
296.335	475.89
296.562	474.66
296.789	474.42
297.016	474.38
297.243	473.93
297.47	474.11
297.697	473.91
297.924	473.38
298.151	472.86
298.378	474
298.604	474.35
298.831	473.46
299.058	473.4
299.285	473.2
299.512	472.37
299.739	471.89
299.966	472.04
300.192	471.31
300.419	469.58
300.646	469.97
300.873	467.37
301.099	467.84
301.326	467.86
301.553	466.4
301.78	468.31
302.006	468.22
302.233	467.37
302.46	466.31
302.686	466.02
302.913	466.37
303.14	465.66
303.366	465.62
303.593	464.13
303.819	463.77
304.046	463.09
304.272	459.89
304.499	458.95
304.725	458.82
304.952	458.58
305.179	458.28
305.405	457.68
305.631	456.57
305.858	456.24
306.084	455.57
306.311	454.77
306.537	455.71
306.764	456.09
306.99	456.89
307.216	456.35
307.443	455.73
307.669	454.18
307.895	454.08
308.122	455.42
308.348	455.17
308.574	454.95
308.801	456.26
309.027	455.2
309.253	454.33
309.479	453.68
309.706	455.69
309.932	455.55
310.158	457.11
310.384	456.35
310.61	454.49
310.837	454.95
311.063	454.68
311.289	453.44
311.515	454.84
311.741	454.18
311.967	453.18
312.193	451.64
312.419	451.6
312.645	451.44
312.871	451.24
313.097	451.68
313.323	451.48
313.549	452.24
313.775	452.8
314.001	452.26
314.227	452.53
314.453	453
314.679	453.48
314.905	453.84
315.131	453.13
315.357	453.75
315.583	454.17
315.809	455.53
316.034	455.93
316.26	456.64
316.486	456.91
316.712	457.91
316.938	458.28
317.163	457.73
317.389	458.35
317.615	459.08
317.841	459.93
318.066	460.22
318.292	460.51
318.518	460.71
318.743	461.88
318.969	462.35
319.195	464.04
319.42	463.82
319.646	464.6
319.872	465.4
320.097	466.29
320.323	466.8
320.548	468.58
320.774	469.09
320.999	470.31
321.225	470.78
321.45	471.55
321.676	472.38
321.901	475.17
322.127	476.66
322.352	478.06
322.578	479.66
322.803	480.86
323.029	482.08
323.254	483.55
323.479	485.2
323.705	485.88
323.93	487.13
324.155	488.58
324.381	489.91
324.606	492.37
324.831	495.28
325.057	497.31
325.282	500
325.507	501.29
325.732	504.58
325.958	506.89
326.183	510.24
326.408	512.77
326.633	516.33
326.858	519.53
327.084	520.68
327.309	522.04
327.534	524.78
327.759	526.71
327.984	530.84
328.209	533.48
328.434	536.64
328.659	538.42
328.884	541.62
329.109	544.18
329.334	545.86
329.559	550.04
329.784	552.58
330.009	555.57
330.234	558.86
330.459	562.84
330.684	565.64
330.909	569.35
331.134	573.84
331.359	578.57
331.584	582.28
331.809	587.86
332.034	591.82
332.259	598.42
332.483	603.89
332.708	608.48
332.933	612.66
333.158	616.88
333.383	621.62
333.607	626.77
333.832	631.15
334.057	636.29
334.282	639.95
334.506	645.51
334.731	649.93
334.956	654.6
335.18	661.71
335.405	665.09
335.63	672.08
335.854	675.89
336.079	680.42
336.303	686.57
336.528	691.26
336.753	696.42
336.977	702
337.202	706.68
337.426	712.73
337.651	718.95
337.875	725.15
338.1	731.8
338.324	741.11
338.549	749.91
338.773	755.78
338.997	763.49
339.222	771.04
339.446	778
339.671	787
339.895	794.18
340.119	800.28
340.344	810.15
340.568	815.51
340.792	823.15
341.017	829.44
341.241	839.02
341.465	846.44
341.689	855.82
341.914	864.09
342.138	871.04
342.362	878.66
342.586	887.33
342.811	894.44
343.035	904.26
343.259	910.89
343.483	918.71
343.707	925.8
343.931	935.73
344.155	944.58
344.38	954.26
344.604	962.66
344.828	973.11
345.052	981.93
345.276	992
345.5	1000.84
345.724	1009.82
345.948	1021.13
346.172	1030.28
346.396	1039.71
346.62	1051.26
346.844	1061.08
347.068	1071.18
347.292	1080.31
347.515	1091.15
347.739	1102.11
347.963	1110.88
348.187	1122.48
348.411	1131.29
348.635	1141.75
348.859	1152.22
349.082	1161.55
349.306	1172.51
349.53	1185.46
349.754	1196.18
349.977	1205.31
350.201	1215.28
350.425	1227.55
350.649	1237.55
350.872	1249.37
351.096	1262.82
351.32	1275.28
351.543	1286.89
351.767	1297.35
351.99	1307.22
352.214	1317.24
352.438	1330.49
352.661	1339.95
352.885	1352.62
353.108	1365.06
353.332	1376.33
353.555	1387.75
353.779	1398.6
354.002	1409.58
354.226	1421.02
354.449	1431.86
354.673	1444.22
354.896	1456.09
355.12	1468.62
355.343	1481.24
355.566	1493.64
355.79	1506.26
356.013	1516.91
356.237	1527.89
356.46	1540.91
356.683	1553.66
356.907	1567.29
357.13	1581.53
357.353	1591.13
357.576	1603.53
357.8	1613.68
358.023	1626.88
358.246	1638.89
358.469	1653.08
358.693	1666.73
358.916	1680.22
359.139	1692.93
359.362	1704.15
359.585	1716.58
359.808	1730.8
360.031	1744.86
360.255	1757.35
360.478	1768.93
360.701	1783.28
360.924	1793.75
361.147	1806.53
361.37	1817.78
361.593	1831.11
361.816	1844.93
362.039	1856.82
362.262	1870.55
362.485	1883.68
362.708	1900.22
362.931	1912.82
363.154	1926.51
363.377	1941.06
363.599	1953.73
363.822	1966.44
364.045	1982.69
364.268	1996.06
364.491	2009.53
364.714	2026.42
364.936	2039.8
365.159	2053.77
365.382	2068.2
365.605	2082.35
365.828	2099.08
366.05	2115.77
366.273	2132.4
366.496	2142.58
366.718	2160.17
366.941	2179.09
367.164	2191.08
367.386	2208.38
367.609	2223.22
367.832	2241.11
368.054	2255.93
368.277	2270.75
368.5	2283.82
368.722	2299.75
368.945	2318.26
369.167	2333.62
369.39	2346.82
369.612	2364.35
369.835	2380.04
370.057	2395.57
370.28	2412.71
370.502	2432.02
370.725	2446.4
370.947	2465.91
371.169	2480.44
371.392	2498.4
371.614	2514.58
371.837	2532.51
372.059	2548.44
372.281	2564.95
372.504	2581.91
372.726	2597.69
372.948	2612.09
373.171	2631.53
373.393	2649.18
373.615	2667.33
373.837	2683.18
374.06	2700.98
374.282	2720.57
374.504	2740.57
374.726	2761.37
374.948	2779.93
375.17	2798.28
375.393	2816.31
375.615	2837.26
375.837	2854.11
376.059	2876.2
376.281	2895.88
376.503	2915.22
376.725	2933.8
376.947	2952.93
377.169	2971.31
377.391	2992.4
377.613	3012.15
377.835	3036.86
378.057	3052.88
378.279	3075.53
378.501	3094.11
378.723	3114
378.945	3136.86
379.167	3157.8
379.389	3178.75
379.611	3200.89
379.833	3222.18
380.054	3245.22
380.276	3266.91
380.498	3292.29
380.72	3316
380.942	3341.31
381.163	3366.2
381.385	3389.57
381.607	3413.8
381.829	3437.22
382.05	3462.93
382.272	3486.46
382.494	3512.8
382.716	3535.55
382.937	3560.48
383.159	3587.29
383.381	3612.02
383.602	3637.09
383.824	3662.4
384.045	3689.29
384.267	3715.4
384.488	3739.08
384.71	3766.91
384.932	3791.15
385.153	3820.69
385.375	3848.62
385.596	3873.62
385.818	3900.84
386.039	3927.95
386.261	3956.55
386.482	3981.78
386.703	4011.89
386.925	4037.22
387.146	4063.84
387.368	4092.86
387.589	4117.66
387.81	4145.33
388.032	4172.2
388.253	4201.33
388.474	4230.84
388.696	4260.62
388.917	4291.51
389.138	4319.24
389.359	4352.15
389.581	4386.09
389.802	4416.46
390.023	4441.93
390.244	4470.35
390.465	4500.71
390.687	4532.68
390.908	4563.33
391.129	4590.75
391.35	4621.15
391.571	4654.53
391.792	4687.55
392.013	4716.2
392.234	4746.26
392.455	4782.71
392.677	4812.11
392.898	4849.48
393.119	4877.15
393.34	4909.02
393.561	4940.71
393.782	4972.51
394.003	5002.8
394.223	5028.98
394.444	5058.84
394.665	5090.93
394.886	5124.37
395.107	5157.93
395.328	5186.97
395.549	5220.55
395.77	5254.53
395.99	5290.6
396.211	5323.02
396.432	5358.08
396.653	5394.82
396.874	5431.37
397.094	5466.18
397.315	5494.69
397.536	5527.64
397.757	5561.44
397.977	5597.35
398.198	5630.62
398.419	5662.46
398.639	5697.66
398.86	5728.17
399.081	5763.46
399.301	5796.2
399.522	5827.89
399.742	5866.38
399.963	5901.24
400.184	5935.44
400.404	5967.28
400.625	6000.95
400.845	6033.77
401.066	6066.97
401.286	6102.13
401.507	6135.93
401.727	6169.26
401.948	6207.42
402.168	6238.6
402.388	6274.78
402.609	6307.2
402.829	6340.08
403.05	6372.62
403.27	6407.53
403.49	6439.48
403.711	6476.17
403.931	6508.13
404.151	6541.78
404.372	6574.84
404.592	6612.15
404.812	6645.49
405.032	6679.66
405.253	6715.93
405.473	6749.11
405.693	6779.95
405.913	6819.33
406.133	6849.53
406.353	6885.88
406.574	6919.73
406.794	6953.8
407.014	6989.46
407.234	7028.66
407.454	7066.6
407.674	7102.73
407.894	7136.89
408.114	7182.71
408.334	7218.06
408.554	7255.82
408.774	7294.29
408.994	7330.86
409.214	7367.37
409.434	7403.95
409.654	7437.15
409.874	7468.69
410.094	7501.8
410.314	7543.71
410.534	7572.93
410.754	7607.58
410.974	7641.82
411.193	7679.11
411.413	7719.22
411.633	7757.75
411.853	7791.95
412.073	7828.6
412.292	7873.88
412.512	7917.98
412.732	7956.75
412.952	7999.73
413.171	8040.06
413.391	8082.86
413.611	8120.64
413.831	8161.91
414.05	8200.44
414.27	8246.58
414.489	8291.38
414.709	8329.33
414.929	8373
415.148	8414.95
415.368	8454.58
415.587	8498.09
415.807	8541.73
416.026	8587
416.246	8631.98
416.465	8674.91
416.685	8715.33
416.904	8759.53
417.124	8802.17
417.343	8842.44
417.563	8892.17
417.782	8942
418.002	8987.64
418.221	9035.06
418.44	9076.26
418.66	9119.04
418.879	9167.97
419.098	9215.97
419.318	9258.29
419.537	9302.57
419.756	9349.46
419.976	9384.93
420.195	9422.82
420.414	9468.06
420.633	9508.78
420.853	9554.53
421.072	9595.08
421.291	9633.93
421.51	9678
421.729	9722.82
421.948	9767.62
422.168	9810.13
422.387	9856.26
422.606	9901.64
422.825	9944.04
423.044	9991.35
423.263	10043.09
423.482	10088.17
423.701	10133.64
423.92	10172.42
424.139	10218.22
424.358	10265.13
424.577	10308.55
424.796	10357.69
425.015	10406.69
425.234	10451.97
425.453	10495.95
425.672	10534.06
425.891	10585.71
426.11	10633.09
426.328	10684.06
426.547	10734.91
426.766	10780.75
426.985	10831.24
427.204	10879.77
427.422	10923.8
427.641	10971.22
427.86	11016.69
428.079	11069.98
428.297	11114.02
428.516	11164.78
428.735	11211.55
428.954	11250.53
429.172	11300.91
429.391	11344.13
429.61	11388.88
429.828	11439.08
430.047	11491.15
430.265	11539.69
430.484	11582.55
430.703	11625.4
430.921	11672.49
431.14	11718.97
431.358	11768.62
431.577	11809.77
431.795	11858.06
432.014	11903.08
432.232	11952.04
432.451	11997.93
432.669	12049.22
432.887	12099.57
433.106	12154.28
433.324	12197.86
433.543	12246.98
433.761	12292.88
433.979	12344.31
434.198	12391.22
434.416	12443.82
434.634	12486.29
434.853	12532.98
435.071	12575.8
435.289	12621.22
435.507	12660.24
435.726	12704.84
435.944	12751.82
436.162	12800.51
436.38	12850.58
436.598	12895.46
436.817	12942.62
437.035	12987.24
437.253	13032.68
437.471	13076.69
437.689	13124.53
437.907	13175.51
438.125	13225.31
438.343	13271.53
438.561	13322.2
438.78	13364.84
438.998	13416.6
439.216	13461.31
439.434	13514.66
439.652	13559
439.869	13611.02
440.087	13654.69
440.305	13701.46
440.523	13752.4
440.741	13801
440.959	13847.73
441.177	13894.33
441.395	13941.51
441.613	13988.13
441.831	14030.89
442.048	14076.84
442.266	14125.4
442.484	14176.62
442.702	14222.95
442.919	14269.62
443.137	14320.46
443.355	14369.71
443.573	14423.29
443.79	14473.13
444.008	14526.53
444.226	14574.15
444.443	14627.42
444.661	14670.89
444.879	14717.68
445.096	14774.71
445.314	14827.68
445.532	14871.37
445.749	14922.49
445.967	14974.68
446.184	15015.2
446.402	15056.53
446.619	15105.24
446.837	15148.49
447.054	15197.46
447.272	15242.22
447.489	15282.08
447.707	15322.2
447.924	15379.44
448.141	15423.78
448.359	15468.73
448.576	15525.06
448.794	15581.4
449.011	15633.13
449.228	15677.38
449.446	15728.11
449.663	15769.62
449.88	15816.24
450.098	15862.66
450.315	15904.09
450.532	15950.95
450.749	15993.86
450.967	16038.11
451.184	16077.09
451.401	16119.2
451.618	16175.09
451.835	16222.78
452.052	16276.38
452.27	16326.89
452.487	16379.11
452.704	16425.15
452.921	16475.78
453.138	16526.08
453.355	16576.46
453.572	16627.28
453.789	16689.93
454.006	16729.73
454.223	16779.08
454.44	16825.2
454.657	16874.08
454.874	16915.08
455.091	16962.91
455.308	16999.28
