Data from test1_MAYP1115451__17__10-17-14-920.txt Node

Date: Wed Jun 12 10:17:14 MDT 2024
User: Modes Lab
Spectrometer: MAYP111545
Trigger mode: 0
Integration Time (sec): 8.000000E-3
Scans to average: 5
Electric dark correction enabled: true
Nonlinearity correction enabled: false
Boxcar width: 5
XAxis mode: Wavelengths
Number of Pixels in Spectrum: 2068
>>>>>Begin Spectral Data<<<<<
165.214	164.07
165.449	164.21
165.683	173.14
165.918	182.24
166.152	188.55
166.387	193.9
166.621	126.34
166.856	164.43
167.09	183.43
167.325	206.72
167.559	223.39
167.794	236.9
168.028	244.21
168.263	245.5
168.497	245.34
168.732	245.99
168.966	246.94
169.2	246.9
169.435	248.9
169.669	250.23
169.903	251.83
170.138	253.47
170.372	255.45
170.606	257.27
170.841	258.59
171.075	260.19
171.309	262.28
171.544	263.7
171.778	265.52
172.012	266.25
172.246	268.27
172.48	269.78
172.715	270.92
172.949	274.07
173.183	275.61
173.417	277.16
173.651	278.38
173.885	279.68
174.119	280.63
174.354	280.56
174.588	281.28
174.822	281.38
175.056	281.58
175.29	281.78
175.524	280.38
175.758	280.72
175.992	281.01
176.226	281.39
176.46	280.98
176.694	281.68
176.928	283.18
177.162	284.56
177.396	284.47
177.63	286.05
177.864	287.3
178.097	287.88
178.331	287.87
178.565	288.27
178.799	287.68
179.033	288.48
179.267	289.39
179.5	290.7
179.734	291.5
179.968	293.28
180.202	294.38
180.436	295.3
180.669	296.52
180.903	298.18
181.137	299.05
181.371	301.94
181.604	302.88
181.838	302.58
182.072	303.47
182.305	305.25
182.539	305.67
182.772	305.94
183.006	306.25
183.24	307.52
183.473	310.94
183.707	312.7
183.94	312.61
184.174	313.52
184.408	315.19
184.641	317.18
184.875	317.05
185.108	318.52
185.342	319.58
185.575	321.47
185.808	321.83
186.042	321.36
186.275	322.58
186.509	323.54
186.742	325.38
186.976	327.14
187.209	327.65
187.442	330.23
187.676	331.54
187.909	333.56
188.142	334.45
188.376	336.61
188.609	338.1
188.842	339.81
189.076	341.45
189.309	342.28
189.542	343.72
189.775	345.32
190.009	346.34
190.242	347.23
190.475	348.39
190.708	351.03
190.941	352.61
191.174	353.39
191.408	354.67
191.641	358.01
191.874	359.9
192.107	361.85
192.34	364.18
192.573	365.39
192.806	367.94
193.039	369.7
193.272	371.76
193.505	373.21
193.738	375.88
193.971	378.07
194.204	378.67
194.437	381.68
194.67	382.19
194.903	382.9
195.136	384.25
195.369	386.98
195.602	388.14
195.835	389.52
196.068	391.9
196.301	392.79
196.533	394.7
196.766	396.16
196.999	397.9
197.232	400.56
197.465	402.12
197.698	406.01
197.93	407.81
198.163	409.96
198.396	412.43
198.629	414.39
198.861	416.58
199.094	417.68
199.327	420.54
199.559	422.18
199.792	423.79
200.025	426.81
200.257	427.78
200.49	429.27
200.723	432.56
200.955	434.47
201.188	436.72
201.42	439.45
201.653	441.9
201.886	443.96
202.118	446.14
202.351	449.59
202.583	451.58
202.816	453.07
203.048	454.92
203.281	456.7
203.513	458.48
203.745	461.03
203.978	462.32
204.21	464.58
204.443	467.1
204.675	469.78
204.907	471.92
205.14	474.67
205.372	476.83
205.605	479.98
205.837	481.96
206.069	485.16
206.302	487.14
206.534	490.94
206.766	492.68
206.998	495.03
207.231	497.54
207.463	499.32
207.695	501.61
207.927	504.99
208.159	507.54
208.392	508.98
208.624	510.23
208.856	512.3
209.088	513.7
209.32	517.07
209.552	517.87
209.784	519.32
210.017	521.39
210.249	522.3
210.481	523.92
210.713	524.1
210.945	526.28
211.177	527.76
211.409	530.99
211.641	532.43
211.873	534.85
212.105	537.14
212.337	538.52
212.569	540.98
212.801	543.85
213.033	546.19
213.264	548.41
213.496	551.19
213.728	554.85
213.96	556.08
214.192	557.92
214.424	559.78
214.656	562.16
214.887	564.47
215.119	566.52
215.351	567.68
215.583	569.7
215.815	572.85
216.046	573.65
216.278	573.63
216.51	575.1
216.741	576.36
216.973	577.21
217.205	579.76
217.436	581.79
217.668	584.96
217.9	586.25
218.131	587.14
218.363	588.16
218.595	589.78
218.826	591.65
219.058	592.88
219.289	595.28
219.521	596.23
219.752	596.98
219.984	596.98
220.215	595.85
220.447	597.56
220.678	598.43
220.91	599.34
221.141	600.96
221.373	602.45
221.604	603.16
221.836	604.14
222.067	605.52
222.298	605.03
222.53	605.43
222.761	606.52
222.993	607.74
223.224	607.78
223.455	608.36
223.686	607.94
223.918	607.61
224.149	608.19
224.38	609.38
224.612	609.96
224.843	611.25
225.074	614.1
225.305	615.5
225.536	616.36
225.768	618.45
225.999	618.98
226.23	620.32
226.461	620.88
226.692	621.87
226.923	621.16
227.155	623.59
227.386	624.41
227.617	623.92
227.848	623.07
228.079	623.14
228.31	623.41
228.541	623.81
228.772	624.56
229.003	626.32
229.234	626.1
229.465	626.07
229.696	624.12
229.927	624.05
230.158	623.07
230.389	622.48
230.62	621.79
230.85	620.63
231.081	620.94
231.312	620.92
231.543	619.32
231.774	619.98
232.005	621.34
232.236	621.28
232.466	620.94
232.697	622.28
232.928	622.88
233.159	623.87
233.389	626.23
233.62	625.18
233.851	624.52
234.082	625.1
234.312	625.18
234.543	624.28
234.774	624.99
235.004	624.79
235.235	624.72
235.466	624.79
235.696	624.34
235.927	623.21
236.157	623.65
236.388	623.85
236.618	624.92
236.849	623.08
237.08	623.81
237.31	624.16
237.541	622.99
237.771	620.7
238.002	621.14
238.232	619.9
238.463	617.63
238.693	617.28
238.923	616.96
239.154	615.1
239.384	616.61
239.615	615.19
239.845	613.16
240.075	614.63
240.306	615.72
240.536	615.1
240.766	616.56
240.997	616.76
241.227	617.99
241.457	617.58
241.687	617.65
241.918	617.83
242.148	617.83
242.378	617.25
242.608	617.18
242.839	616.45
243.069	615.27
243.299	613.43
243.529	614.96
243.759	613.38
243.989	614.25
244.22	614.27
244.45	612.14
244.68	611.87
244.91	612.38
245.14	610.99
245.37	610.59
245.6	611.14
245.83	611.67
246.06	609.83
246.29	608.98
246.52	606.74
246.75	606.05
246.98	606.18
247.21	604.94
247.44	604.76
247.67	604.58
247.9	604.81
248.13	603.48
248.359	603.65
248.589	603.38
248.819	602.52
249.049	603.36
249.279	602.88
249.509	601.68
249.738	602.19
249.968	600.27
250.198	599.61
250.428	599.21
250.657	598.58
250.887	597.08
251.117	595.9
251.347	595.59
251.576	594.38
251.806	593.18
252.036	593.54
252.265	592.54
252.495	592.83
252.725	591.5
252.954	590.63
253.184	590.01
253.413	589.21
253.643	589.45
253.873	588.54
254.102	588.96
254.332	588.92
254.561	587.08
254.791	585.99
255.02	584.74
255.25	584.99
255.479	583.78
255.708	583.68
255.938	581.76
256.167	579.43
256.397	579.19
256.626	577.39
256.856	576.48
257.085	575.85
257.314	574.96
257.544	574.76
257.773	573.28
258.002	571.58
258.232	570.56
258.461	570.52
258.69	570.38
258.919	569.36
259.149	567.72
259.378	567.14
259.607	566.58
259.836	565.5
260.065	564.87
260.295	565.14
260.524	565.63
260.753	565.56
260.982	564.68
261.211	564.21
261.44	563.65
261.669	564.47
261.899	562.96
262.128	562.67
262.357	561.83
262.586	560.59
262.815	559.5
263.044	557.76
263.273	559.88
263.502	558.87
263.731	557.28
263.96	556.81
264.189	555.41
264.418	555.63
264.646	554.18
264.875	553.7
265.104	553.18
265.333	551.9
265.562	552.59
265.791	547.72
266.02	547.63
266.249	547.68
266.477	547.14
266.706	546.01
266.935	542.88
267.164	542.12
267.393	542.34
267.621	542.87
267.85	542.76
268.079	541.83
268.307	541.87
268.536	541.41
268.765	541.01
268.993	540.34
269.222	539.88
269.451	539.9
269.679	540.21
269.908	541.1
270.137	539.27
270.365	539.65
270.594	539.27
270.822	539.01
271.051	539.38
271.279	539.36
271.508	539.1
271.736	540.43
271.965	542.05
272.193	541.92
272.422	540.36
272.65	541.98
272.879	541.23
273.107	542.23
273.336	543.07
273.564	541.88
273.792	541.56
274.021	539.94
274.249	538.14
274.477	537.28
274.706	535.7
274.934	534.01
275.162	531.88
275.391	530.83
275.619	528.65
275.847	526.79
276.075	525.9
276.304	525.5
276.532	525.41
276.76	524.48
276.988	523.58
277.216	522.87
277.445	521.81
277.673	520.5
277.901	520.41
278.129	519.5
278.357	517.56
278.585	518.18
278.813	517.07
279.041	516.98
279.269	515.5
279.497	513.96
279.725	514.7
279.954	515.79
280.182	514.83
280.41	513.61
280.637	513.39
280.865	513.1
281.093	511.81
281.321	511.72
281.549	510.43
281.777	510.54
282.005	511.07
282.233	509.92
282.461	509.87
282.689	509.21
282.916	508.5
283.144	507.81
283.372	508.41
283.6	509.07
283.828	507.27
284.055	507.03
284.283	506.28
284.511	505.41
284.739	504.99
284.966	503.43
285.194	504.07
285.422	503.36
285.649	503.45
285.877	501.94
286.105	500.3
286.332	500.48
286.56	500.56
286.788	501.01
287.015	500.38
287.243	499.39
287.47	498.67
287.698	497.72
287.925	497.54
288.153	497.27
288.381	497.03
288.608	496.05
288.836	495.59
289.063	495.07
289.29	494.28
289.518	493.81
289.745	493.27
289.973	491.88
290.2	491.74
290.428	490.94
290.655	489.16
290.882	489.34
291.11	488.68
291.337	487.85
291.564	486.99
291.792	486.65
292.019	486.96
292.246	487.05
292.473	486.5
292.701	485.98
292.928	485.78
293.155	486.1
293.382	485.3
293.61	484.03
293.837	484.19
294.064	483.68
294.291	481.83
294.518	480.72
294.745	481.23
294.972	480.3
295.2	478.85
295.427	478.05
295.654	477.32
295.881	476.08
296.108	477.05
296.335	476.36
296.562	475.5
296.789	475.3
297.016	474.81
297.243	472.96
297.47	473.92
297.697	474.39
297.924	473.79
298.151	472.78
298.378	472.72
298.604	471.63
298.831	470.3
299.058	470.03
299.285	469.83
299.512	469.96
299.739	469.19
299.966	467.45
300.192	466.14
300.419	466.23
300.646	465.32
300.873	465.5
301.099	465.05
301.326	465.23
301.553	465.83
301.78	466.52
302.006	465.9
302.233	465.65
302.46	465.65
302.686	465.68
302.913	463.88
303.14	464.1
303.366	463.1
303.593	462.05
303.819	460.16
304.046	458.83
304.272	458.34
304.499	457.58
304.725	457.65
304.952	457.28
305.179	457.81
305.405	458.47
305.631	457.87
305.858	459.07
306.084	459.58
306.311	461.27
306.537	460.83
306.764	460.58
306.99	460.65
307.216	459.87
307.443	460.38
307.669	459.81
307.895	459.28
308.122	458.72
308.348	456.25
308.574	455.58
308.801	455.18
309.027	454.19
309.253	453.12
309.479	452.3
309.706	452.1
309.932	451.12
310.158	450.39
310.384	449.61
310.61	449.18
310.837	450.36
311.063	450.59
311.289	450.61
311.515	451.38
311.741	449.85
311.967	450.16
312.193	450.12
312.419	450.39
312.645	450.05
312.871	450.72
313.097	451.85
313.323	452.56
313.549	452.79
313.775	452.45
314.001	452.21
314.227	453.96
314.453	453.72
314.679	453.45
314.905	454.3
315.131	455.56
315.357	455.76
315.583	456.81
315.809	456.01
316.034	456.68
316.26	457.01
316.486	458.19
316.712	458.67
316.938	458.47
317.163	459.65
317.389	460.12
317.615	460.83
317.841	461.3
318.066	460.7
318.292	461.25
318.518	462.21
318.743	462.47
318.969	462.94
319.195	464.63
319.42	465.23
319.646	466.28
319.872	466.19
320.097	465.63
320.323	466.76
320.548	468.27
320.774	469.23
320.999	469.07
321.225	471.3
321.45	471.85
321.676	472.07
321.901	473.78
322.127	475.87
322.352	477.94
322.578	479.19
322.803	480.47
323.029	481.38
323.254	482.36
323.479	483.96
323.705	485.19
323.93	486.85
324.155	488.83
324.381	490.78
324.606	490.98
324.831	493.52
325.057	495.58
325.282	498.21
325.507	501.43
325.732	504.39
325.958	507.48
326.183	508.94
326.408	511.14
326.633	512.25
326.858	514.3
327.084	517.1
327.309	517.78
327.534	520.43
327.759	524.16
327.984	525.76
328.209	528.16
328.434	530.25
328.659	533.56
328.884	536.03
329.109	540.18
329.334	542.98
329.559	546.79
329.784	550.16
330.009	554.16
330.234	557.78
330.459	560.1
330.684	564.07
330.909	567.87
331.134	571.76
331.359	577.23
331.584	581.08
331.809	585.28
332.034	590.25
332.259	594.1
332.483	597.83
332.708	600.99
332.933	607.63
333.158	611.01
333.383	616.23
333.607	620.3
333.832	624.43
334.057	629.27
334.282	634.1
334.506	637.78
334.731	643.81
334.956	650.18
335.18	654.52
335.405	658.83
335.63	666.03
335.854	671.43
336.079	678.16
336.303	683.56
336.528	689.19
336.753	695.08
336.977	701.85
337.202	707.98
337.426	714.47
337.651	720.96
337.875	727.68
338.1	734.12
338.324	740.14
338.549	746.38
338.773	754.54
338.997	760.79
339.222	768.58
339.446	774.67
339.671	783.27
339.895	789.94
340.119	798.78
340.344	806.21
340.568	812.34
340.792	819.12
341.017	826.48
341.241	833.88
341.465	842.45
341.689	850.96
341.914	859.14
342.138	866.05
342.362	874.47
342.586	883.41
342.811	891.67
343.035	901.94
343.259	911.23
343.483	921.05
343.707	930.76
343.931	940.7
344.155	949.36
344.38	958.45
344.604	967.81
344.828	976.23
345.052	984.38
345.276	994.54
345.5	1003.76
345.724	1013.83
345.948	1022.39
346.172	1031.52
346.396	1041.16
346.62	1051.39
346.844	1062.05
347.068	1072.7
347.292	1083.38
347.515	1091.99
347.739	1105.5
347.963	1113.39
348.187	1123.81
348.411	1134.63
348.635	1145.32
348.859	1155.78
349.082	1166.1
349.306	1177.12
349.53	1187.14
349.754	1198.68
349.977	1210.01
350.201	1218.9
350.425	1232.39
350.649	1244.1
350.872	1254.7
351.096	1264.21
351.32	1275.79
351.543	1286.1
351.767	1296.23
351.99	1306.48
352.214	1316.34
352.438	1327.28
352.661	1336.23
352.885	1346.83
353.108	1356.96
353.332	1369.16
353.555	1380.12
353.779	1390.07
354.002	1402.12
354.226	1413.47
354.449	1426.94
354.673	1438.72
354.896	1451.43
355.12	1464.79
355.343	1475.87
355.566	1487.78
355.79	1498.76
356.013	1512.39
356.237	1524.48
356.46	1537.34
356.683	1551.41
356.907	1562.47
357.13	1575.79
357.353	1588.14
357.576	1600.34
357.8	1614.45
358.023	1627.32
358.246	1642.12
358.469	1654.3
358.693	1668.38
358.916	1681.18
359.139	1691.43
359.362	1703.72
359.585	1715.88
359.808	1729.3
360.031	1740.65
360.255	1753.18
360.478	1766.65
360.701	1779.01
360.924	1791.59
361.147	1804.63
361.37	1817.5
361.593	1831.94
361.816	1847.48
362.039	1860.67
362.262	1873.67
362.485	1888.43
362.708	1899.94
362.931	1914.68
363.154	1925.48
363.377	1938.07
363.599	1951.19
363.822	1967.34
364.045	1982.78
364.268	1996.28
364.491	2011.36
364.714	2024.41
364.936	2039.48
365.159	2055.07
365.382	2068.81
365.605	2085.87
365.828	2105.16
366.05	2118.92
366.273	2132.14
366.496	2145.25
366.718	2160.16
366.941	2174.05
367.164	2192.05
367.386	2206.03
367.609	2223.28
367.832	2238.32
368.054	2255.48
368.277	2269.88
368.5	2287.54
368.722	2303.28
368.945	2322.9
369.167	2338.54
369.39	2354.47
369.612	2369.19
369.835	2387.61
370.057	2403.78
370.28	2420.34
370.502	2435.5
370.725	2450.36
370.947	2466.85
371.169	2484.39
371.392	2499.03
371.614	2516.21
371.837	2533.98
372.059	2553.32
372.281	2569.54
372.504	2584.76
372.726	2602.38
372.948	2620.27
373.171	2638.18
373.393	2655.74
373.615	2672.05
373.837	2688.5
374.06	2705.72
374.282	2726.12
374.504	2742.92
374.726	2761.07
374.948	2779.68
375.17	2798.41
375.393	2817.39
375.615	2837.79
375.837	2855.59
376.059	2876.94
376.281	2895.28
376.503	2914.78
376.725	2933.27
376.947	2951.63
377.169	2973.03
377.391	2992.16
377.613	3010.21
377.835	3033.21
378.057	3051.63
378.279	3075.16
378.501	3095.81
378.723	3118.67
378.945	3142.01
379.167	3163.25
379.389	3182.58
379.611	3206.14
379.833	3230.38
380.054	3254.76
380.276	3273.83
380.498	3296.92
380.72	3318.59
380.942	3341.87
381.163	3365.88
381.385	3389.07
381.607	3412.68
381.829	3440.39
382.05	3461.61
382.272	3488.3
382.494	3515.14
382.716	3540.63
382.937	3565.07
383.159	3589.99
383.381	3613.23
383.602	3639.39
383.824	3663.92
384.045	3690.23
384.267	3717.56
384.488	3743.78
384.71	3764.23
384.932	3789.28
385.153	3815.58
385.375	3844.83
385.596	3872.39
385.818	3900.78
386.039	3928.96
386.261	3955.47
386.482	3982.99
386.703	4007.7
386.925	4035.45
387.146	4066.36
387.368	4093.67
387.589	4122.1
387.81	4149.27
388.032	4176.48
388.253	4203.27
388.474	4232.18
388.696	4262.88
388.917	4290.72
389.138	4320.72
389.359	4348.14
389.581	4376.78
389.802	4405.67
390.023	4435.99
390.244	4465.07
390.465	4497.39
390.687	4524.88
390.908	4549.76
391.129	4577.5
391.35	4607.92
391.571	4638.94
391.792	4673.94
392.013	4705.18
392.234	4736.48
392.455	4766.52
392.677	4798.72
392.898	4823.88
393.119	4857.23
393.34	4893.03
393.561	4927.58
393.782	4963.03
394.003	4995.43
394.223	5024.28
394.444	5061.34
394.665	5092.48
394.886	5122.87
395.107	5156.14
395.328	5192.03
395.549	5225.65
395.77	5255.48
395.99	5285.45
396.211	5313.78
396.432	5347.78
396.653	5382.5
396.874	5412.56
397.094	5450.54
397.315	5484.54
397.536	5514.85
397.757	5548.05
397.977	5582.34
398.198	5616.1
398.419	5653.54
398.639	5690.9
398.86	5724.92
399.081	5756.58
399.301	5788.32
399.522	5822.28
399.742	5856.59
399.963	5895.94
400.184	5929.16
400.404	5966.74
400.625	6002.38
400.845	6035.85
401.066	6067.83
401.286	6100.58
401.507	6132.58
401.727	6171.41
401.948	6198.3
402.168	6232.92
402.388	6262.25
402.609	6299.18
402.829	6333.76
403.05	6368.07
403.27	6398.08
403.49	6433.03
403.711	6466.16
403.931	6505.05
404.151	6531.74
404.372	6568.16
404.592	6601.67
404.812	6634.56
405.032	6667.68
405.253	6693.61
405.473	6728.72
405.693	6763.81
405.913	6799.25
406.133	6831.48
406.353	6867.68
406.574	6910.7
406.794	6949.76
407.014	6987.88
407.234	7027.01
407.454	7062.1
407.674	7105.65
407.894	7138.85
408.114	7178.88
408.334	7216.56
408.554	7256.54
408.774	7293.05
408.994	7325.05
409.214	7358.47
409.434	7392.03
409.654	7428.05
409.874	7465.39
410.094	7500.19
410.314	7537.58
410.534	7572.3
410.754	7609.39
410.974	7646.87
411.193	7679.99
411.413	7717.19
411.633	7760.3
411.853	7797.67
412.073	7840.18
412.292	7878.41
412.512	7919.14
412.732	7960.14
412.952	7999.32
413.171	8037.98
413.391	8081.79
413.611	8126.45
413.831	8172.27
414.05	8209.88
414.27	8255.36
414.489	8296.61
414.709	8343.63
414.929	8381.85
415.148	8426.27
415.368	8474.3
415.587	8522.1
415.807	8562.34
416.026	8603.38
416.246	8644.27
416.465	8687.7
416.685	8730.18
416.904	8771.07
417.124	8812.16
417.343	8861.74
417.563	8899.88
417.782	8943.79
418.002	8980.27
418.221	9025.58
418.44	9073.34
418.66	9117.87
418.879	9165.39
419.098	9209.52
419.318	9251.56
419.537	9297.5
419.756	9337.16
419.976	9386.12
420.195	9426.85
420.414	9472.14
420.633	9514.1
420.853	9555.68
421.072	9599.48
421.291	9638.3
421.51	9684.01
421.729	9732.01
421.948	9774.07
422.168	9820.32
422.387	9862.21
422.606	9907.07
422.825	9948.18
423.044	9992.12
423.263	10040.01
423.482	10079.28
423.701	10126.54
423.92	10171.48
424.139	10212.87
424.358	10254.16
424.577	10298.67
424.796	10342.81
425.015	10387.76
425.234	10436.88
425.453	10484.58
425.672	10524.34
425.891	10574.88
426.11	10618.05
426.328	10663.5
426.547	10714.03
426.766	10761.85
426.985	10807.56
427.204	10858.67
427.422	10906.72
427.641	10955.54
427.86	11004.85
428.079	11057.7
428.297	11111.16
428.516	11165.74
428.735	11215.58
428.954	11262.98
429.172	11317.39
429.391	11366.45
429.61	11410.39
429.828	11457.81
430.047	11505.48
430.265	11551.3
430.484	11593.12
430.703	11634.94
430.921	11674.87
431.14	11715.36
431.358	11763.58
431.577	11807.12
431.795	11860.94
432.014	11916.3
432.232	11963.9
432.451	12015.39
432.669	12060.43
432.887	12111.48
433.106	12160.27
433.324	12208.58
433.543	12259.38
433.761	12303.67
433.979	12349.08
434.198	12387.65
434.416	12431.27
434.634	12475.85
434.853	12517.47
435.071	12565.47
435.289	12616.76
435.507	12660.39
435.726	12709.34
435.944	12760.65
436.162	12809.16
436.38	12851.96
436.598	12899.65
436.817	12943.63
437.035	12987.38
437.253	13033.54
437.471	13083.12
437.689	13125.54
437.907	13172.39
438.125	13219.56
438.343	13263.05
438.561	13308.68
438.78	13359.9
438.998	13408.21
439.216	13453.47
439.434	13508.81
439.652	13550.78
439.869	13597.78
440.087	13646.79
440.305	13699.08
440.523	13748.9
440.741	13797.63
440.959	13844.08
441.177	13896.79
441.395	13946.38
441.613	13996.67
441.831	14040.83
442.048	14092.85
442.266	14131.14
442.484	14174.63
442.702	14218.01
442.919	14263.34
443.137	14315.23
443.355	14369.03
443.573	14421.45
443.79	14467.88
444.008	14519.63
444.226	14572.28
444.443	14626.58
444.661	14681.08
444.879	14730.21
445.096	14782.32
445.314	14831.83
445.532	14875.98
445.749	14914.27
445.967	14955.92
446.184	15003.05
446.402	15048.21
446.619	15091.94
446.837	15135.3
447.054	15187.61
447.272	15230.39
447.489	15278.1
447.707	15324.28
447.924	15373.5
448.141	15422.83
448.359	15465.39
448.576	15517.81
448.794	15569.32
449.011	15619.94
449.228	15672.54
449.446	15719.19
449.663	15771.74
449.88	15815.96
450.098	15866.54
450.315	15910.61
450.532	15968.45
450.749	16021.99
450.967	16070.63
451.184	16119.56
451.401	16169.76
451.618	16215.59
451.835	16259.76
452.052	16311.05
452.27	16361.01
452.487	16404.43
452.704	16450.76
452.921	16491.14
453.138	16538.16
453.355	16580.99
453.572	16626.76
453.789	16670.87
454.006	16720.23
454.223	16768.5
454.44	16809.3
454.657	16854.19
