Data from test1_MAYP1115451__14__10-17-14-083.txt Node

Date: Wed Jun 12 10:17:14 MDT 2024
User: Modes Lab
Spectrometer: MAYP111545
Trigger mode: 0
Integration Time (sec): 8.000000E-3
Scans to average: 5
Electric dark correction enabled: true
Nonlinearity correction enabled: false
Boxcar width: 5
XAxis mode: Wavelengths
Number of Pixels in Spectrum: 2068
>>>>>Begin Spectral Data<<<<<
165.214	161.13
165.449	161
165.683	170.25
165.918	178.89
166.152	184.84
166.387	189.91
166.621	121.78
166.856	159.87
167.09	178.51
167.325	202.02
167.559	218.11
167.794	232.87
168.028	241.25
168.263	242.11
168.497	242.31
168.732	243.85
168.966	245.8
169.2	247.65
169.435	249.65
169.669	251.09
169.903	252.73
170.138	255.36
170.372	256.89
170.606	257.84
170.841	260.13
171.075	261.73
171.309	262.49
171.544	263.27
171.778	265.24
172.012	266.4
172.246	268
172.48	270.44
172.715	272.2
172.949	274.09
173.183	275.62
173.417	276.53
173.651	278.25
173.885	279.58
174.119	280.6
174.354	280.65
174.588	280.82
174.822	281.15
175.056	281.53
175.29	281.24
175.524	280.64
175.758	281.22
175.992	282.44
176.226	281.75
176.46	281.09
176.694	282.4
176.928	283.2
177.162	284.16
177.396	284.73
177.63	285.13
177.864	285.95
178.097	286.73
178.331	287.44
178.565	287.62
178.799	289.44
179.033	292.09
179.267	292.07
179.5	292.8
179.734	294.16
179.968	295.6
180.202	295.53
180.436	296.38
180.669	297.64
180.903	298.15
181.137	299.22
181.371	300.2
181.604	301.05
181.838	303.62
182.072	305.04
182.305	306
182.539	306.67
182.772	308.24
183.006	309.35
183.24	310.56
183.473	314.53
183.707	315.42
183.94	316.96
184.174	317.42
184.408	317.56
184.641	318.75
184.875	320.29
185.108	321.49
185.342	323.13
185.575	324.87
185.808	326.4
186.042	325.93
186.275	327.75
186.509	327.85
186.742	330.15
186.976	330.89
187.209	331.35
187.442	331.33
187.676	333.69
187.909	334.67
188.142	335.02
188.376	335.71
188.609	336.85
188.842	337.62
189.076	339.44
189.309	340.8
189.542	341.56
189.775	344.45
190.009	346.98
190.242	347.62
190.475	349.76
190.708	352.16
190.941	354.64
191.174	355.85
191.408	357.62
191.641	358.18
191.874	359.4
192.107	362.8
192.34	363.47
192.573	365.85
192.806	368.04
193.039	368.55
193.272	370.95
193.505	372.58
193.738	375.29
193.971	377.53
194.204	380.44
194.437	381.25
194.67	382.51
194.903	383.73
195.136	384.22
195.369	386.64
195.602	389.31
195.835	390.02
196.068	392.13
196.301	392.82
196.533	394.27
196.766	396.33
196.999	399.44
197.232	401.11
197.465	403.84
197.698	406.89
197.93	408.71
198.163	411.16
198.396	413.29
198.629	414.42
198.861	416.73
199.094	418.96
199.327	421.22
199.559	423
199.792	425.24
200.025	428.22
200.257	429.69
200.49	432.35
200.723	434.29
200.955	436.76
201.188	439.65
201.42	441.91
201.653	444.11
201.886	446.31
202.118	449.38
202.351	451.62
202.583	453.76
202.816	456.13
203.048	457.47
203.281	459.36
203.513	461.36
203.745	463.56
203.978	466.36
204.21	468.04
204.443	471.09
204.675	472.58
204.907	475
205.14	477.75
205.372	479.89
205.605	481.58
205.837	483.49
206.069	486.11
206.302	488.27
206.534	489.62
206.766	492.73
206.998	493.29
207.231	495.85
207.463	498.22
207.695	499.22
207.927	502.27
208.159	504.96
208.392	506.84
208.624	509.25
208.856	511.76
209.088	514.35
209.32	516.09
209.552	518.36
209.784	519.82
210.017	521.25
210.249	522.36
210.481	523.89
210.713	524.82
210.945	527.96
211.177	528.16
211.409	530.02
211.641	532.45
211.873	534
212.105	535.67
212.337	537.38
212.569	539.29
212.801	541.75
213.033	543.13
213.264	546.16
213.496	547.45
213.728	550.44
213.96	551.64
214.192	552.64
214.424	554.71
214.656	556.82
214.887	559.09
215.119	560.78
215.351	562.85
215.583	564.73
215.815	566.4
216.046	569.36
216.278	570.62
216.51	571.98
216.741	574.25
216.973	576.71
217.205	577.75
217.436	579.38
217.668	581.73
217.9	583.18
218.131	583.53
218.363	584.22
218.595	584.35
218.826	587.16
219.058	588.67
219.289	588.87
219.521	590.36
219.752	591.89
219.984	592.49
220.215	594.07
220.447	595.31
220.678	597.09
220.91	598.78
221.141	600.02
221.373	599.33
221.604	600.02
221.836	601.45
222.067	601.6
222.298	603.02
222.53	604.6
222.761	604.36
222.993	605.58
223.224	607.93
223.455	607.84
223.686	608.24
223.918	609.65
224.149	611.11
224.38	611.56
224.612	612.62
224.843	613.55
225.074	614.15
225.305	614.15
225.536	615.02
225.768	615.75
225.999	617.18
226.23	618.47
226.461	620.65
226.692	620.78
226.923	621.49
227.155	622.76
227.386	622.87
227.617	623.05
227.848	623.65
228.079	624.58
228.31	624.91
228.541	624.85
228.772	624.36
229.003	622.62
229.234	624.24
229.465	625.38
229.696	624.25
229.927	624.58
230.158	623.82
230.389	624.62
230.62	622.75
230.85	621.55
231.081	622.64
231.312	623.35
231.543	623.27
231.774	621.18
232.005	621.2
232.236	621.75
232.466	621.15
232.697	621.16
232.928	620.27
233.159	621.62
233.389	622.16
233.62	621.04
233.851	621.73
234.082	620.82
234.312	622.27
234.543	621.13
234.774	619.49
235.004	619.67
235.235	620.76
235.466	620.78
235.696	619.18
235.927	617.71
236.157	617.67
236.388	616.78
236.618	619.51
236.849	618.95
237.08	619.89
237.31	621.82
237.541	622.02
237.771	621.55
238.002	621.24
238.232	621.44
238.463	623.56
238.693	623.96
238.923	623.51
239.154	621.38
239.384	620.45
239.615	618.64
239.845	616.24
240.075	615.24
240.306	615.05
240.536	614.24
240.766	615.49
240.997	613.55
241.227	614.07
241.457	612.18
241.687	613.07
241.918	613.02
242.148	613.09
242.378	613.51
242.608	612.91
242.839	612.6
243.069	612.36
243.299	611.35
243.529	612.4
243.759	610.36
243.989	611.76
244.22	609.6
244.45	610.35
244.68	608.27
244.91	607.45
245.14	608.29
245.37	606.8
245.6	607.25
245.83	604.58
246.06	602.44
246.29	602.33
246.52	600.93
246.75	600.96
246.98	599.95
247.21	600.55
247.44	600.38
247.67	600.22
247.9	600.89
248.13	601.22
248.359	601.2
248.589	599.82
248.819	599.33
249.049	598.56
249.279	598.13
249.509	597.31
249.738	597.15
249.968	596.29
250.198	593.87
250.428	593.76
250.657	592.29
250.887	593.02
251.117	594.07
251.347	593.16
251.576	592.51
251.806	591.15
252.036	589.53
252.265	588.96
252.495	588.62
252.725	588.55
252.954	587.49
253.184	586.98
253.413	585.8
253.643	585.38
253.873	584.91
254.102	585.42
254.332	586.76
254.561	586.96
254.791	587.05
255.02	587.35
255.25	586.05
255.479	585.35
255.708	584.27
255.938	583.36
256.167	581.89
256.397	581.71
256.626	580.42
256.856	579.27
257.085	579.09
257.314	577.55
257.544	576.04
257.773	576.04
258.002	575.45
258.232	575.36
258.461	574.51
258.69	573.78
258.919	573.09
259.149	573.69
259.378	573
259.607	571.67
259.836	571.51
260.065	570.11
260.295	570.22
260.524	569.33
260.753	568.93
260.982	567.89
261.211	567.98
261.44	567.2
261.669	564.75
261.899	563.76
262.128	562.35
262.357	561.15
262.586	561.22
262.815	558.8
263.044	558.47
263.273	559.91
263.502	559.55
263.731	558.93
263.96	558.22
264.189	557.82
264.418	555.93
264.646	555.84
264.875	555.11
265.104	553.04
265.333	553.67
265.562	552.45
265.791	548.53
266.02	547.75
266.249	545.62
266.477	544.76
266.706	543.55
266.935	543.11
267.164	542.24
267.393	541.64
267.621	543.45
267.85	542.67
268.079	542.24
268.307	542.18
268.536	542.13
268.765	542.35
268.993	540.85
269.222	540.33
269.451	540.85
269.679	540.98
269.908	541.96
270.137	539.67
270.365	538.6
270.594	537.62
270.822	537.49
271.051	538.18
271.279	538.51
271.508	539.27
271.736	540.84
271.965	541.67
272.193	542.05
272.422	540.71
272.65	541.69
272.879	542.15
273.107	541.82
273.336	541.04
273.564	539.89
273.792	539.76
274.021	538.67
274.249	536.95
274.477	534.95
274.706	533.45
274.934	532.4
275.162	531.6
275.391	529.51
275.619	528.91
275.847	527.25
276.075	526.25
276.304	524.29
276.532	523.36
276.76	522.22
276.988	520.42
277.216	519.98
277.445	519.04
277.673	518.44
277.901	519.62
278.129	519.62
278.357	519.78
278.585	519.62
278.813	520.11
279.041	519.98
279.269	519.6
279.497	520.93
279.725	519.73
279.954	519.05
280.182	517.82
280.41	517.09
280.637	515.76
280.865	514.91
281.093	513.22
281.321	511.09
281.549	510.2
281.777	510.38
282.005	509.04
282.233	509.49
282.461	509.76
282.689	509.42
282.916	508.67
283.144	508.47
283.372	508.07
283.6	509.69
283.828	509.6
284.055	508.96
284.283	508.67
284.511	508.22
284.739	506.58
284.966	506.49
285.194	505.95
285.422	503.82
285.649	504.24
285.877	503.67
286.105	501.78
286.332	501.25
286.56	501.87
286.788	502
287.015	501.25
287.243	500.89
287.47	499.16
287.698	498.58
287.925	499.18
288.153	497.87
288.381	497.51
288.608	496.73
288.836	496.55
289.063	495.58
289.29	493.29
289.518	493.25
289.745	492.62
289.973	492.35
290.2	493.04
290.428	492.24
290.655	491.55
290.882	491.2
291.11	491.31
291.337	489.73
291.564	488.89
291.792	489.36
292.019	488.35
292.246	488.16
292.473	487.84
292.701	486.22
292.928	485.53
293.155	484.2
293.382	482.95
293.61	481.95
293.837	481.89
294.064	480.38
294.291	479.44
294.518	477.65
294.745	477.09
294.972	476.82
295.2	475.51
295.427	477.29
295.654	477.78
295.881	477.96
296.108	476.8
296.335	476.53
296.562	476.76
296.789	475.98
297.016	476.78
297.243	477.15
297.47	476
297.697	474.58
297.924	471.95
298.151	470.96
298.378	471.16
298.604	470.49
298.831	470.98
299.058	471.96
299.285	472.11
299.512	471.55
299.739	469.8
299.966	470.09
300.192	471.11
300.419	470.93
300.646	471.2
300.873	470.09
301.099	471.22
301.326	470.07
301.553	468.73
301.78	468.27
302.006	468.4
302.233	468.24
302.46	467.25
302.686	465.93
302.913	466.4
303.14	464.47
303.366	463.56
303.593	462.53
303.819	462.58
304.046	461.4
304.272	461.09
304.499	460.4
304.725	460.31
304.952	459.78
305.179	459.73
305.405	459.04
305.631	459.71
305.858	459.49
306.084	459.02
306.311	458.2
306.537	457.55
306.764	457.71
306.99	456.96
307.216	456.62
307.443	456.2
307.669	456.38
307.895	455.15
308.122	454.6
308.348	454.65
308.574	455.11
308.801	454.78
309.027	455.02
309.253	453.55
309.479	454.13
309.706	453.84
309.932	453.76
310.158	452.78
310.384	453.11
310.61	452.76
310.837	452.11
311.063	452.42
311.289	452.42
311.515	452.58
311.741	451.98
311.967	451.82
312.193	452.38
312.419	453
312.645	453.76
312.871	453.45
313.097	453.45
313.323	454.13
313.549	453.55
313.775	453.91
314.001	454.05
314.227	454.69
314.453	454.38
314.679	454.96
314.905	454.33
315.131	455.29
315.357	456.73
315.583	457.71
315.809	456.84
316.034	457.05
316.26	457.11
316.486	458.05
316.712	458.69
316.938	458.95
317.163	459.35
317.389	459.87
317.615	459.65
317.841	460.2
318.066	460.42
318.292	462.75
318.518	462.91
318.743	463.58
318.969	464
319.195	464.8
319.42	464.6
319.646	464.33
319.872	466.04
320.097	467.42
320.323	468.05
320.548	469.27
320.774	470.11
320.999	471.13
321.225	471.42
321.45	471.84
321.676	473.33
321.901	475.85
322.127	477.44
322.352	478.09
322.578	480.02
322.803	480.67
323.029	481.38
323.254	483.2
323.479	485.31
323.705	487.33
323.93	489.27
324.155	490.91
324.381	492.6
324.606	494.44
324.831	497.44
325.057	498.55
325.282	500.02
325.507	503.02
325.732	504.15
325.958	506.31
326.183	508.85
326.408	510.78
326.633	514.04
326.858	516.69
327.084	518.71
327.309	520.27
327.534	523.71
327.759	527.38
327.984	529.87
328.209	533.6
328.434	537
328.659	540
328.884	542.62
329.109	545.56
329.334	548.51
329.559	551.45
329.784	554.95
330.009	556.65
330.234	560.11
330.459	563.16
330.684	565.85
330.909	568.58
331.134	571.76
331.359	576.95
331.584	578.91
331.809	582.24
332.034	586.67
332.259	590.78
332.483	595.89
332.708	600.31
332.933	605.35
333.158	609.16
333.383	614.56
333.607	619.75
333.832	624.42
334.057	630
334.282	635.84
334.506	642.15
334.731	647.47
334.956	652.15
335.18	657.67
335.405	661.89
335.63	669.98
335.854	675.29
336.079	680.84
336.303	685.22
336.528	691.6
336.753	697.95
336.977	704.16
337.202	710.53
337.426	717.64
337.651	724.45
337.875	733.13
338.1	739
338.324	746.09
338.549	751.73
338.773	759.78
338.997	766.22
339.222	772.11
339.446	778.02
339.671	784.31
339.895	790.96
340.119	797.82
340.344	803.84
340.568	809.82
340.792	817.56
341.017	827.38
341.241	836.55
341.465	844.95
341.689	854.78
341.914	862.36
342.138	870.78
342.362	880.56
342.586	889.38
342.811	897.71
343.035	906.22
343.259	913.02
343.483	921.56
343.707	928.65
343.931	937.75
344.155	944.33
344.38	954.15
344.604	963.22
344.828	971.15
345.052	978.98
345.276	988.87
345.5	997.75
345.724	1006.8
345.948	1015.27
346.172	1026.85
346.396	1036.69
346.62	1048.15
346.844	1057.53
347.068	1067.47
347.292	1079.25
347.515	1090
347.739	1102.02
347.963	1112.75
348.187	1122.53
348.411	1133.73
348.635	1142.42
348.859	1152.73
349.082	1162.93
349.306	1175.47
349.53	1187.22
349.754	1196.33
349.977	1207.2
350.201	1215.87
350.425	1226.4
350.649	1238.69
350.872	1250
351.096	1260.42
351.32	1270.89
351.543	1282.56
351.767	1291.6
351.99	1302.45
352.214	1313.82
352.438	1324.25
352.661	1335.05
352.885	1347.75
353.108	1359.27
353.332	1369.91
353.555	1381.82
353.779	1392.89
354.002	1404.02
354.226	1416.15
354.449	1427.04
354.673	1438.13
354.896	1450.02
355.12	1461.73
355.343	1473.71
355.566	1486.4
355.79	1498.8
356.013	1512.64
356.237	1525.18
356.46	1537.6
356.683	1550.76
356.907	1563.27
357.13	1577.22
357.353	1591.56
357.576	1605.56
357.8	1618.4
358.023	1631.93
358.246	1643.75
358.469	1655.62
358.693	1667.71
358.916	1679.69
359.139	1691.89
359.362	1702.11
359.585	1714.15
359.808	1724.55
360.031	1736.33
360.255	1749.55
360.478	1760.04
360.701	1774.51
360.924	1785.62
361.147	1799.47
361.37	1814.44
361.593	1829.09
361.816	1845.36
362.039	1858.11
362.262	1871.47
362.485	1884.35
362.708	1897.38
362.931	1911.69
363.154	1925.47
363.377	1940.89
363.599	1954.31
363.822	1967.4
364.045	1979.02
364.268	1990.93
364.491	2006.13
364.714	2023.04
364.936	2038.4
365.159	2050.27
365.382	2064.24
365.605	2076.71
365.828	2093.44
366.05	2107.76
366.273	2120.02
366.496	2135.51
366.718	2153.58
366.941	2168.42
367.164	2181.89
367.386	2199.27
367.609	2217.91
367.832	2235.29
368.054	2251.85
368.277	2264.73
368.5	2283.49
368.722	2301.73
368.945	2319.35
369.167	2336.15
369.39	2352.16
369.612	2368.31
369.835	2383.47
370.057	2399.98
370.28	2417.6
370.502	2434.2
370.725	2452.49
370.947	2466.15
371.169	2485.16
371.392	2503.02
371.614	2516.69
371.837	2532.84
372.059	2549.02
372.281	2567.87
372.504	2585.18
372.726	2597.89
372.948	2616.75
373.171	2634.85
373.393	2653.58
373.615	2669
373.837	2684.38
374.06	2704.31
374.282	2724.82
374.504	2744.69
374.726	2759.6
374.948	2777
375.17	2797.31
375.393	2815.71
375.615	2832.33
375.837	2851.78
376.059	2872.27
376.281	2889.53
376.503	2908.51
376.725	2924.2
376.947	2942.44
377.169	2963.04
377.391	2981.45
377.613	3000.85
377.835	3020.56
378.057	3041.04
378.279	3061.04
378.501	3080.4
378.723	3104.15
378.945	3125.16
379.167	3148.76
379.389	3172.58
379.611	3197.16
379.833	3220.05
380.054	3244.13
380.276	3269.15
380.498	3292.51
380.72	3318.8
380.942	3340.15
381.163	3364.16
381.385	3391.02
381.607	3416.31
381.829	3436.05
382.05	3457.91
382.272	3487.67
382.494	3515.36
382.716	3537.13
382.937	3562.18
383.159	3583.75
383.381	3612.13
383.602	3639.56
383.824	3666.24
384.045	3690.05
384.267	3721.38
384.488	3747.67
384.71	3768.8
384.932	3794.36
385.153	3821.07
385.375	3849.76
385.596	3877.71
385.818	3905.24
386.039	3929.27
386.261	3952.98
386.482	3983.6
386.703	4010.56
386.925	4042.58
387.146	4070.33
387.368	4096.49
387.589	4125
387.81	4150.73
388.032	4178.82
388.253	4207.35
388.474	4235.96
388.696	4262.69
388.917	4290.76
389.138	4318.44
389.359	4342.18
389.581	4372.73
389.802	4402.82
390.023	4431.69
390.244	4460.84
390.465	4491.67
390.687	4522.82
390.908	4553.73
391.129	4587.85
391.35	4618.84
391.571	4651.45
391.792	4682.58
392.013	4714.67
392.234	4747.05
392.455	4780.02
392.677	4813.8
392.898	4842.31
393.119	4873.07
393.34	4903.69
393.561	4935.11
393.782	4964.85
394.003	4997.78
394.223	5031.02
394.444	5060.11
394.665	5092.33
394.886	5127.53
395.107	5163.16
395.328	5199.55
395.549	5231.24
395.77	5264.65
395.99	5299.53
396.211	5330.71
396.432	5362.24
396.653	5396.6
396.874	5433.62
397.094	5463.98
397.315	5495
397.536	5525.22
397.757	5557.8
397.977	5591.96
398.198	5625.75
398.419	5654.95
398.639	5688.2
398.86	5720.15
399.081	5751.55
399.301	5783.25
399.522	5819.87
399.742	5855.22
399.963	5883.31
400.184	5919.09
400.404	5952.78
400.625	5986.78
400.845	6023.96
401.066	6057.76
401.286	6090.4
401.507	6129.05
401.727	6163.51
401.948	6197.45
402.168	6228.45
402.388	6266.16
402.609	6297.78
402.829	6333.96
403.05	6368.44
403.27	6399.96
403.49	6437.73
403.711	6476
403.931	6506.73
404.151	6541.78
404.372	6573.42
404.592	6607.75
404.812	6643.55
405.032	6678.15
405.253	6706.91
405.473	6742.58
405.693	6778.47
405.913	6810.11
406.133	6844.16
406.353	6881.71
406.574	6920.15
406.794	6952.71
407.014	6989.38
407.234	7028.69
407.454	7066.07
407.674	7106.05
407.894	7140.22
408.114	7179.31
408.334	7219.84
408.554	7252.42
408.774	7286.33
408.994	7321.07
409.214	7359.49
409.434	7395.96
409.654	7431.65
409.874	7467.02
410.094	7501.55
410.314	7542.2
410.534	7574.85
410.754	7609.35
410.974	7650.25
411.193	7689.56
411.413	7725.45
411.633	7767.65
411.853	7805.98
412.073	7840.36
412.292	7878.24
412.512	7922.04
412.732	7958.13
412.952	7995.22
413.171	8036.78
413.391	8075.65
413.611	8120.09
413.831	8160.47
414.05	8199.15
414.27	8240.75
414.489	8282.27
414.709	8323.55
414.929	8364.13
415.148	8409.47
415.368	8455.47
415.587	8498.75
415.807	8545.05
416.026	8586.91
416.246	8630.15
416.465	8676.24
416.685	8716.65
416.904	8766.53
417.124	8813.15
417.343	8856.05
417.563	8903.09
417.782	8951.16
418.002	8998.44
418.221	9042.16
418.44	9083.44
418.66	9128.78
418.879	9169.98
419.098	9212.36
419.318	9252.04
419.537	9298.27
419.756	9345.67
419.976	9385.91
420.195	9428.45
420.414	9464.44
420.633	9509.49
420.853	9554.96
421.072	9608.18
421.291	9652.45
421.51	9700.53
421.729	9743.82
421.948	9789.76
422.168	9828.93
422.387	9872.67
422.606	9918.76
422.825	9968.2
423.044	10011.33
423.263	10055.78
423.482	10088.71
423.701	10127.84
423.92	10180.33
424.139	10226.16
424.358	10266.69
424.577	10315.95
424.796	10356.49
425.015	10401.53
425.234	10440.65
425.453	10486.75
425.672	10532.49
425.891	10576.64
426.11	10630.87
426.328	10668.8
426.547	10716.16
426.766	10761.35
426.985	10805.85
427.204	10855.09
427.422	10899.65
427.641	10952.82
427.86	11001.71
428.079	11048.45
428.297	11103.58
428.516	11151.4
428.735	11202.58
428.954	11245.67
429.172	11293.56
429.391	11341.27
429.61	11392.8
429.828	11436.64
430.047	11489.51
430.265	11533.56
430.484	11580.16
430.703	11622.2
430.921	11667.95
431.14	11713.36
431.358	11764.62
431.577	11810.09
431.795	11857.55
432.014	11906.96
432.232	11957.78
432.451	12006.89
432.669	12059.45
432.887	12107.31
433.106	12154.73
433.324	12198.07
433.543	12243.78
433.761	12288.55
433.979	12338.15
434.198	12387.18
434.416	12431
434.634	12479.71
434.853	12514.87
435.071	12558.56
435.289	12604.62
435.507	12656.29
435.726	12701.38
435.944	12747.91
436.162	12792.31
436.38	12839.65
436.598	12885.75
436.817	12929.44
437.035	12971.29
437.253	13020.4
437.471	13065.91
437.689	13115.85
437.907	13157.58
438.125	13212.67
438.343	13263.96
438.561	13312.85
438.78	13368
438.998	13416.58
439.216	13469.78
439.434	13521.36
439.652	13576.89
439.869	13625.2
440.087	13672.04
440.305	13722.11
440.523	13766.82
440.741	13814.22
440.959	13872.2
441.177	13913.67
441.395	13956.09
441.613	14003.64
441.831	14045.29
442.048	14087.75
442.266	14135.35
442.484	14183.89
442.702	14235.44
442.919	14285.04
443.137	14338.67
443.355	14382.49
443.573	14435.89
443.79	14487.07
444.008	14531.47
444.226	14583.91
444.443	14631.95
444.661	14678.82
444.879	14726.58
445.096	14771.64
445.314	14822.78
445.532	14865.78
445.749	14917.05
445.967	14959.16
446.184	15006.25
446.402	15046.78
446.619	15093.13
446.837	15140.35
447.054	15189.69
447.272	15233.31
447.489	15278.58
447.707	15326.6
447.924	15375.53
448.141	15419.87
448.359	15462.49
448.576	15512.91
448.794	15566.98
449.011	15621.38
449.228	15672.09
449.446	15723.27
449.663	15774.67
449.88	15822.27
450.098	15869.15
450.315	15917.24
450.532	15970.27
450.749	16024.64
450.967	16070.69
451.184	16119.18
451.401	16166.93
451.618	16209.33
451.835	16260.65
452.052	16308.11
452.27	16356.96
452.487	16404.67
452.704	16447.15
452.921	16491
453.138	16537.33
453.355	16582.15
453.572	16634.55
453.789	16679.56
454.006	16732.78
454.223	16769.95
454.44	16817.67
454.657	16869.51
454.874	16908.33
455.091	16955.25
