Data from test1_MAYP1115451__95__10-17-42-547.txt Node

Date: Wed Jun 12 10:17:42 MDT 2024
User: Modes Lab
Spectrometer: MAYP111545
Trigger mode: 0
Integration Time (sec): 8.000000E-3
Scans to average: 5
Electric dark correction enabled: true
Nonlinearity correction enabled: false
Boxcar width: 5
XAxis mode: Wavelengths
Number of Pixels in Spectrum: 2068
>>>>>Begin Spectral Data<<<<<
165.214	162.53
165.449	163.2
165.683	171.27
165.918	180.76
166.152	187.36
166.387	192.33
166.621	123.71
166.856	162.18
167.09	181.42
167.325	205.02
167.559	222.11
167.794	235.4
168.028	242.13
168.263	244.27
168.497	244.22
168.732	244.55
168.966	245.82
169.2	247.84
169.435	248.96
169.669	249.96
169.903	252
170.138	252.78
170.372	254.98
170.606	256.82
170.841	258.16
171.075	258.6
171.309	260.11
171.544	262.05
171.778	264.13
172.012	266.04
172.246	268.09
172.48	269.49
172.715	270.91
172.949	272.6
173.183	274.4
173.417	275.55
173.651	277.64
173.885	279.45
174.119	280.13
174.354	280.56
174.588	281.07
174.822	281.02
175.056	280.8
175.29	281.02
175.524	280.49
175.758	280.96
175.992	281.69
176.226	280.69
176.46	280.18
176.694	281.04
176.928	281.35
177.162	282.69
177.396	283.55
177.63	284.44
177.864	286.58
178.097	288.2
178.331	288.71
178.565	289.84
178.799	291.62
179.033	293.42
179.267	293.71
179.5	293.35
179.734	293.69
179.968	295.09
180.202	295.96
180.436	296.11
180.669	296.38
180.903	296.95
181.137	297.75
181.371	299.44
181.604	300
181.838	300.95
182.072	303.89
182.305	305.07
182.539	305.45
182.772	306.93
183.006	309.05
183.24	310.44
183.473	314.89
183.707	316.24
183.94	316.53
184.174	318.53
184.408	319.87
184.641	320.29
184.875	321.2
185.108	322.56
185.342	323.93
185.575	324.71
185.808	325.95
186.042	324.73
186.275	325.36
186.509	326.75
186.742	328.13
186.976	329.71
187.209	331.47
187.442	332.89
187.676	333.84
187.909	333.64
188.142	334.87
188.376	336.2
188.609	337.07
188.842	339.04
189.076	340.55
189.309	340.64
189.542	341.75
189.775	344.29
190.009	345.89
190.242	347.53
190.475	350.55
190.708	351.87
190.941	354.15
191.174	356.58
191.408	357.25
191.641	358.96
191.874	360.53
192.107	363
192.34	363.95
192.573	366.56
192.806	368.64
193.039	369.78
193.272	372.38
193.505	373.56
193.738	375.25
193.971	377.73
194.204	379.75
194.437	381.31
194.67	382.31
194.903	383.18
195.136	384.49
195.369	387.2
195.602	389.69
195.835	390.96
196.068	392.98
196.301	393.85
196.533	396.16
196.766	397.98
196.999	399.85
197.232	402.27
197.465	404.2
197.698	405.89
197.93	407.09
198.163	408.75
198.396	410.93
198.629	413.27
198.861	416.18
199.094	417.07
199.327	420.07
199.559	423.09
199.792	424.47
200.025	426.93
200.257	430.29
200.49	432.49
200.723	435.44
200.955	437.07
201.188	439.62
201.42	441.55
201.653	445.15
201.886	446.91
202.118	449.33
202.351	451.31
202.583	454.62
202.816	454.93
203.048	457.56
203.281	459.05
203.513	461.22
203.745	463.62
203.978	465.56
204.21	467.58
204.443	469.82
204.675	471.35
204.907	473.82
205.14	474.78
205.372	477.11
205.605	479.67
205.837	481.96
206.069	484.76
206.302	485.89
206.534	487.98
206.766	490.24
206.998	491.02
207.231	493.69
207.463	496.15
207.695	498.55
207.927	501.45
208.159	503.53
208.392	505.24
208.624	506.73
208.856	509.13
209.088	511.93
209.32	513.53
209.552	516.25
209.784	518.65
210.017	521.38
210.249	523.64
210.481	525.56
210.713	526.11
210.945	529.64
211.177	531.65
211.409	533.4
211.641	534.49
211.873	536
212.105	538.56
212.337	540.64
212.569	541
212.801	542.67
213.033	544.07
213.264	547.33
213.496	548.42
213.728	551
213.96	552.96
214.192	555.25
214.424	558.33
214.656	560.35
214.887	561.64
215.119	564.22
215.351	566.62
215.583	568.16
215.815	568.73
216.046	570.89
216.278	572.64
216.51	574.76
216.741	576.51
216.973	577.6
217.205	577.95
217.436	578.24
217.668	580.62
217.9	581.8
218.131	583.16
218.363	584.6
218.595	585.76
218.826	586.91
219.058	587.18
219.289	588
219.521	589.02
219.752	590.58
219.984	593.16
220.215	594.07
220.447	595.11
220.678	595.95
220.91	598.58
221.141	598.69
221.373	599.96
221.604	601.78
221.836	603.71
222.067	605.33
222.298	607.22
222.53	607.53
222.761	607.56
222.993	607.62
223.224	608.64
223.455	607.8
223.686	608.82
223.918	608.65
224.149	608.95
224.38	609.11
224.612	609.62
224.843	611.05
225.074	612.64
225.305	614.27
225.536	614.8
225.768	616.24
225.999	618.05
226.23	618.93
226.461	620.45
226.692	620
226.923	621.53
227.155	622.85
227.386	622.15
227.617	622.09
227.848	621.73
228.079	623.71
228.31	624.53
228.541	623.95
228.772	624.42
229.003	624.27
229.234	625.95
229.465	624.36
229.696	622.35
229.927	621.98
230.158	622.15
230.389	621.15
230.62	620.09
230.85	619.76
231.081	620.33
231.312	620.93
231.543	621.16
231.774	620.6
232.005	621.02
232.236	621
232.466	621.67
232.697	621.47
232.928	622.29
233.159	621.78
233.389	621
233.62	620.24
233.851	620.18
234.082	620.35
234.312	621.38
234.543	620.33
234.774	620.31
235.004	620
235.235	619.82
235.466	619.76
235.696	620.36
235.927	621.04
236.157	621.53
236.388	621.45
236.618	620.22
236.849	618.82
237.08	619.91
237.31	619.47
237.541	620.16
237.771	619.67
238.002	619.75
238.232	620.05
238.463	620.45
238.693	620.05
238.923	618.33
239.154	617.87
239.384	618.49
239.615	618.75
239.845	619.33
240.075	617.33
240.306	616.65
240.536	614.78
240.766	614.44
240.997	612.82
241.227	614.05
241.457	613.76
241.687	614.04
241.918	613.69
242.148	611.55
242.378	611.07
242.608	609.51
242.839	610.51
243.069	610.69
243.299	609.82
243.529	610.4
243.759	607.98
243.989	607.65
244.22	606.85
244.45	606
244.68	607.31
244.91	605.31
245.14	605.53
245.37	604.75
245.6	605.82
245.83	604.22
246.06	603.02
246.29	602.51
246.52	602.65
246.75	602.36
246.98	604.05
247.21	602.73
247.44	603.45
247.67	604.2
247.9	603.4
248.13	601.35
248.359	602.49
248.589	601.69
248.819	601.73
249.049	601.18
249.279	601.22
249.509	597.64
249.738	596.91
249.968	596.44
250.198	594.24
250.428	594.51
250.657	594.18
250.887	593.05
251.117	594.33
251.347	592.93
251.576	591.27
251.806	589.58
252.036	588.44
252.265	589.4
252.495	590.02
252.725	591.55
252.954	589.71
253.184	589.51
253.413	588.76
253.643	586.16
253.873	585.51
254.102	585.98
254.332	585.4
254.561	586.49
254.791	584.78
255.02	584.65
255.25	584.22
255.479	583.58
255.708	584.18
255.938	584.02
256.167	583.45
256.397	582.51
256.626	581.78
256.856	581.44
257.085	580.22
257.314	579.42
257.544	576.22
257.773	574.11
258.002	573.62
258.232	571
258.461	568.95
258.69	569.13
258.919	568.93
259.149	567.73
259.378	567.15
259.607	566.73
259.836	565.62
260.065	567.33
260.295	566.84
260.524	566.22
260.753	566.47
260.982	565.07
261.211	564.29
261.44	564.49
261.669	564.22
261.899	562.95
262.128	562.02
262.357	562.53
262.586	559.71
262.815	559.96
263.044	558.51
263.273	560.38
263.502	561.53
263.731	561.25
263.96	559.58
264.189	558.38
264.418	559.13
264.646	557.56
264.875	556.49
265.104	556.69
265.333	556.05
265.562	556.05
265.791	553.05
266.02	551.62
266.249	550.04
266.477	549.25
266.706	547.67
266.935	545.49
267.164	545.67
267.393	542.67
267.621	543
267.85	541.22
268.079	540.65
268.307	539.93
268.536	538.47
268.765	537.64
268.993	537.27
269.222	538.35
269.451	538.55
269.679	537.75
269.908	539.04
270.137	536.95
270.365	536.89
270.594	536.45
270.822	536.87
271.051	538.71
271.279	538.96
271.508	539.4
271.736	539.31
271.965	540.15
272.193	541.31
272.422	541.24
272.65	541.93
272.879	542.2
273.107	542.38
273.336	540.75
273.564	540.16
273.792	539.16
274.021	537.36
274.249	536.27
274.477	534.29
274.706	532.87
274.934	531.98
275.162	530.18
275.391	529.11
275.619	526.95
275.847	525.27
276.075	524.31
276.304	522.58
276.532	522.75
276.76	521.58
276.988	521.47
277.216	520.87
277.445	519
277.673	518.45
277.901	518.07
278.129	519
278.357	519.29
278.585	518.62
278.813	519.2
279.041	517.53
279.269	516.33
279.497	515.51
279.725	514.35
279.954	513.98
280.182	514.44
280.41	512.55
280.637	511.22
280.865	510.24
281.093	509.69
281.321	509.07
281.549	509.75
281.777	510.13
282.005	509.82
282.233	509.05
282.461	509.65
282.689	509.27
282.916	510.16
283.144	509.73
283.372	509.35
283.6	507.84
283.828	507.49
284.055	506.33
284.283	505.07
284.511	504.15
284.739	502.64
284.966	501.35
285.194	500.6
285.422	498.64
285.649	498.42
285.877	497.64
286.105	497.07
286.332	496.55
286.56	495.56
286.788	494.98
287.015	494.29
287.243	494.53
287.47	496.24
287.698	495
287.925	495.24
288.153	494.93
288.381	494.8
288.608	494.36
288.836	493.87
289.063	494.4
289.29	494.76
289.518	494.65
289.745	494.89
289.973	493.05
290.2	492.91
290.428	491.55
290.655	490.51
290.882	490.07
291.11	489.96
291.337	488.42
291.564	487.51
291.792	486.73
292.019	486.69
292.246	485.73
292.473	484.27
292.701	482.49
292.928	482.29
293.155	482.45
293.382	482.55
293.61	481.95
293.837	482.27
294.064	482.55
294.291	480.78
294.518	478.6
294.745	478.25
294.972	479.05
295.2	479.93
295.427	480.2
295.654	478.53
295.881	477.38
296.108	475.51
296.335	475.22
296.562	474.2
296.789	475.24
297.016	476.09
297.243	475.31
297.47	474.4
297.697	473.82
297.924	472.62
298.151	472.53
298.378	472
298.604	474.29
298.831	472.89
299.058	472.13
299.285	471.09
299.512	469.98
299.739	470.13
299.966	469.35
300.192	467.87
300.419	468.13
300.646	467.55
300.873	467.15
301.099	464.73
301.326	464.95
301.553	464.33
301.78	464.4
302.006	463.38
302.233	461.25
302.46	460.89
302.686	460.51
302.913	460.07
303.14	460.33
303.366	461.02
303.593	460.73
303.819	460.35
304.046	460.11
304.272	459.2
304.499	458.89
304.725	459.15
304.952	457.31
305.179	457.76
305.405	457.4
305.631	455.95
305.858	454.31
306.084	454.44
306.311	454.75
306.537	454.31
306.764	453.89
306.99	454.49
307.216	455.05
307.443	456.44
307.669	456.38
307.895	455.55
308.122	454.87
308.348	454.78
308.574	455.2
308.801	453.49
309.027	453.31
309.253	453.95
309.479	453.95
309.706	454.45
309.932	454.71
310.158	453.47
310.384	453.84
310.61	454.51
310.837	454.87
311.063	454.02
311.289	454.35
311.515	454.71
311.741	453.27
311.967	452.78
312.193	452.33
312.419	451.56
312.645	451.85
312.871	451.11
313.097	450.69
313.323	450
313.549	450.87
313.775	452.24
314.001	452.22
314.227	452.62
314.453	453.42
314.679	453.95
314.905	454.18
315.131	454.51
315.357	455.42
315.583	455.62
315.809	455.36
316.034	454.24
316.26	453.75
316.486	453.64
316.712	454.29
316.938	453.82
317.163	453.6
317.389	453.98
317.615	454.71
317.841	456.05
318.066	457.16
318.292	459.56
318.518	460.71
318.743	461.11
318.969	462.95
319.195	464.62
319.42	464.51
319.646	464.76
319.872	465.45
320.097	466
320.323	465.51
320.548	466.45
320.774	466.55
320.999	467.29
321.225	469.02
321.45	469.93
321.676	470.25
321.901	472.87
322.127	475.65
322.352	477.33
322.578	479.62
322.803	481.05
323.029	482.8
323.254	483.85
323.479	485.95
323.705	486.76
323.93	486.62
324.155	489.4
324.381	490.87
324.606	491.22
324.831	493.71
325.057	494.45
325.282	497.35
325.507	498.8
325.732	501.38
325.958	503.13
326.183	505.4
326.408	509.56
326.633	511.55
326.858	514.62
327.084	517.78
327.309	519.95
327.534	522.8
327.759	524.85
327.984	528.33
328.209	532.07
328.434	536.42
328.659	540.29
328.884	543.15
329.109	544.98
329.334	547.33
329.559	550.4
329.784	553.31
330.009	557.16
330.234	560.29
330.459	564.45
330.684	566.78
330.909	569.29
331.134	573.53
331.359	576.27
331.584	580.6
331.809	585.16
332.034	589.05
332.259	593.67
332.483	597.95
332.708	602.4
332.933	606.78
333.158	611.82
333.383	617.85
333.607	622
333.832	627.58
334.057	631.31
334.282	637.11
334.506	642.4
334.731	647.33
334.956	653.02
335.18	658.93
335.405	662.96
335.63	667.91
335.854	673.07
336.079	678.15
336.303	682.51
336.528	689.42
336.753	693.6
336.977	698.53
337.202	704.71
337.426	710.67
337.651	717.07
337.875	723.75
338.1	730.47
338.324	736.64
338.549	743.8
338.773	752.47
338.997	760.05
339.222	767
339.446	776
339.671	782.87
339.895	790.56
340.119	797.27
340.344	805.93
340.568	813.51
340.792	820.78
341.017	827.69
341.241	834.96
341.465	842.85
341.689	851.56
341.914	857.98
342.138	867.25
342.362	876.02
342.586	885.91
342.811	894.56
343.035	903.44
343.259	911.36
343.483	920.22
343.707	929.65
343.931	939.78
344.155	949.13
344.38	959.02
344.604	968.07
344.828	976.09
345.052	984.4
345.276	990.87
345.5	1000.6
345.724	1011.49
345.948	1021.07
346.172	1031.11
346.396	1040.02
346.62	1050.82
346.844	1061.44
347.068	1070.15
347.292	1080.82
347.515	1090.49
347.739	1103.45
347.963	1113.2
348.187	1124.02
348.411	1135.64
348.635	1146.42
348.859	1156.51
349.082	1167.36
349.306	1175.04
349.53	1187
349.754	1195.93
349.977	1206.11
350.201	1215.91
350.425	1227.56
350.649	1237.24
350.872	1247.25
351.096	1257.53
351.32	1268.76
351.543	1277.76
351.767	1290.84
351.99	1300.82
352.214	1312.91
352.438	1326.13
352.661	1336.53
352.885	1347.82
353.108	1360.67
353.332	1372.24
353.555	1383.05
353.779	1395.04
354.002	1406.82
354.226	1418.13
354.449	1430
354.673	1442.98
354.896	1452.95
355.12	1465.73
355.343	1477.04
355.566	1487.35
355.79	1497.8
356.013	1509.95
356.237	1523.05
356.46	1537.36
356.683	1551.05
356.907	1565.09
357.13	1577.24
357.353	1591.35
357.576	1603.27
357.8	1614.78
358.023	1627.2
358.246	1642.47
358.469	1654.2
358.693	1666.38
358.916	1679.6
359.139	1693.82
359.362	1704.58
359.585	1716.67
359.808	1729
360.031	1742.15
360.255	1755.44
360.478	1769.36
360.701	1780.36
360.924	1795.44
361.147	1808.56
361.37	1819.25
361.593	1831.47
361.816	1845.56
362.039	1858.71
362.262	1871.04
362.485	1885.6
362.708	1900.11
362.931	1914.73
363.154	1929.04
363.377	1940.89
363.599	1956.75
363.822	1971.65
364.045	1984.95
364.268	1999.64
364.491	2014.04
364.714	2028.24
364.936	2041.73
365.159	2056.91
365.382	2068.11
365.605	2084.04
365.828	2101.51
366.05	2112.38
366.273	2127.51
366.496	2141.4
366.718	2155.6
366.941	2172.45
367.164	2188.51
367.386	2204.16
367.609	2221.31
367.832	2236.62
368.054	2250.93
368.277	2265.51
368.5	2283.11
368.722	2300.35
368.945	2317.51
369.167	2334.29
369.39	2346.8
369.612	2365.36
369.835	2383.22
370.057	2399.11
370.28	2417.07
370.502	2433.05
370.725	2449.53
370.947	2466.69
371.169	2482.78
371.392	2501.25
371.614	2515.96
371.837	2535.58
372.059	2551.09
372.281	2567.47
372.504	2581
372.726	2600.56
372.948	2617.16
373.171	2635.67
373.393	2650.2
373.615	2666.11
373.837	2680.91
374.06	2699.67
374.282	2716.8
374.504	2734.85
374.726	2753.11
374.948	2776.22
375.17	2794.82
375.393	2814.98
375.615	2834.47
375.837	2857.53
376.059	2878.25
376.281	2898.71
376.503	2921.11
376.725	2941.31
376.947	2959.78
377.169	2978.82
377.391	2995.38
377.613	3015.64
377.835	3034.75
378.057	3053.69
378.279	3069.75
378.501	3089.4
378.723	3110.55
378.945	3130.58
379.167	3151.42
379.389	3175.49
379.611	3196.44
379.833	3218.56
380.054	3237.47
380.276	3262.05
380.498	3284.71
380.72	3311.18
380.942	3335.44
381.163	3359.65
381.385	3383.22
381.607	3410.02
381.829	3432.18
382.05	3455.65
382.272	3480.6
382.494	3507.16
382.716	3532.55
382.937	3558.73
383.159	3581.84
383.381	3609.13
383.602	3631.09
383.824	3657.67
384.045	3682.07
384.267	3710
384.488	3737.65
384.71	3764.18
384.932	3792.02
385.153	3819.2
385.375	3846.15
385.596	3874.38
385.818	3898.22
386.039	3925.96
386.261	3955.05
386.482	3982.67
386.703	4010.02
386.925	4040.87
387.146	4068.73
387.368	4096.22
387.589	4124.09
387.81	4153.25
388.032	4183.71
388.253	4211.47
388.474	4243.47
388.696	4267.95
388.917	4294.85
389.138	4325.42
389.359	4352.44
389.581	4379.22
389.802	4405.02
390.023	4433.4
390.244	4461.85
390.465	4490.96
390.687	4520.2
390.908	4545.45
391.129	4576.2
391.35	4607.85
391.571	4634.98
391.792	4664.87
392.013	4696.85
392.234	4731.75
392.455	4763.49
392.677	4794.84
392.898	4823.53
393.119	4857.89
393.34	4894
393.561	4928.35
393.782	4962.36
394.003	4994.71
394.223	5026.58
394.444	5057.84
394.665	5088.31
394.886	5121.69
395.107	5151.84
395.328	5184.38
395.549	5215.71
395.77	5247.58
395.99	5280.91
396.211	5310.16
396.432	5344.2
396.653	5379.98
396.874	5420.24
397.094	5455.33
397.315	5489.71
397.536	5525.51
397.757	5560.31
397.977	5596.16
398.198	5629.51
398.419	5662.35
398.639	5696.84
398.86	5731.87
399.081	5767.69
399.301	5795.07
399.522	5828.38
399.742	5859.27
399.963	5893.98
400.184	5925.91
400.404	5958.69
400.625	5993.85
400.845	6026.05
401.066	6060.07
401.286	6092.69
401.507	6120.44
401.727	6157.13
401.948	6191.71
402.168	6227.98
402.388	6261.53
402.609	6297.55
402.829	6330.36
403.05	6361.55
403.27	6398.64
403.49	6433.4
403.711	6471.04
403.931	6510.73
404.151	6542.85
404.372	6575.64
404.592	6604.95
404.812	6633.87
405.032	6663.62
405.253	6698.38
405.473	6736.11
405.693	6763
405.913	6796.29
406.133	6825.44
406.353	6860.98
406.574	6899.11
406.794	6938.38
407.014	6978.18
407.234	7017.33
407.454	7059.6
407.674	7093.05
407.894	7128.42
408.114	7170.25
408.334	7211.38
408.554	7249.76
408.774	7282.15
408.994	7321.76
409.214	7353.55
409.434	7388.98
409.654	7426.11
409.874	7463.33
410.094	7502.36
410.314	7541.07
410.534	7580.82
410.754	7620.58
410.974	7657.53
411.193	7694.09
411.413	7724.02
411.633	7763.16
411.853	7802.73
412.073	7841.55
412.292	7877.98
412.512	7917.27
412.732	7955.56
412.952	7991.69
413.171	8027.33
413.391	8068.18
413.611	8110.89
413.831	8156.84
414.05	8201.75
414.27	8240.6
414.489	8284.45
414.709	8323.62
414.929	8366.6
415.148	8409.6
415.368	8454.73
415.587	8501.44
415.807	8548.33
416.026	8593.67
416.246	8634.16
416.465	8675.85
416.685	8721.67
416.904	8767.47
417.124	8814.27
417.343	8860.45
417.563	8906.78
417.782	8952.55
418.002	8994.51
418.221	9037.69
418.44	9078.36
418.66	9123.96
418.879	9169.71
419.098	9216.58
419.318	9261.93
419.537	9308.15
419.756	9350.02
419.976	9388.98
420.195	9427.25
420.414	9470.93
420.633	9512.31
420.853	9557.07
421.072	9600.2
421.291	9643.76
421.51	9683.45
421.729	9724.47
421.948	9767.64
422.168	9809.51
422.387	9853.25
422.606	9904.38
422.825	9945.45
423.044	9988.13
423.263	10035.24
423.482	10078.73
423.701	10120.02
423.92	10165.98
424.139	10208.56
424.358	10253.95
424.577	10298.29
424.796	10348.35
425.015	10392.13
425.234	10441.04
425.453	10488.55
425.672	10533.02
425.891	10581.76
426.11	10629.58
426.328	10673.18
426.547	10720.87
426.766	10769.36
426.985	10817.87
427.204	10861.78
427.422	10904.84
427.641	10952.55
427.86	10997.22
428.079	11041.69
428.297	11086.15
428.516	11133.76
428.735	11186.76
428.954	11235.09
429.172	11276.13
429.391	11329.85
429.61	11378.93
429.828	11425.69
430.047	11473.2
430.265	11519.62
430.484	11569.29
430.703	11619.49
430.921	11670.29
431.14	11713
431.358	11761.89
431.577	11808.65
431.795	11854.42
432.014	11903.8
432.232	11959.04
432.451	12010.38
432.669	12064.82
432.887	12113.8
433.106	12165.11
433.324	12209.07
433.543	12260.11
433.761	12302.07
433.979	12358.18
434.198	12403.45
434.416	12447.07
434.634	12483.44
434.853	12522.15
435.071	12562.93
435.289	12612.67
435.507	12655.13
435.726	12703.25
435.944	12746.95
436.162	12794.58
436.38	12837.55
436.598	12876.15
436.817	12924.55
437.035	12975.33
437.253	13022.05
437.471	13074.16
437.689	13114.13
437.907	13159.24
438.125	13209.75
438.343	13261.36
438.561	13312.65
438.78	13361.15
438.998	13416.45
439.216	13463.89
439.434	13513.15
439.652	13563.85
439.869	13610.78
440.087	13659.6
440.305	13710.91
440.523	13754.71
440.741	13800.93
440.959	13843.6
441.177	13887.02
441.395	13934.36
441.613	13981.8
441.831	14031.65
442.048	14078.67
442.266	14126.38
442.484	14179.4
442.702	14227.8
442.919	14274.82
443.137	14323.33
443.355	14374.13
443.573	14427.36
443.79	14477.13
444.008	14530.42
444.226	14578.8
444.443	14628.07
444.661	14679.35
444.879	14723.96
445.096	14767.65
445.314	14823.04
445.532	14867.76
445.749	14919.35
445.967	14966.65
446.184	15008.04
446.402	15050
446.619	15091.53
446.837	15133.96
447.054	15180.78
447.272	15226.13
447.489	15273.64
447.707	15313.51
447.924	15358.36
448.141	15409.49
448.359	15453.2
448.576	15506.2
448.794	15552.73
449.011	15602.98
449.228	15651.27
449.446	15693.6
449.663	15742.6
449.88	15790.07
450.098	15837.98
450.315	15887.98
450.532	15933.42
450.749	15984.42
450.967	16034.51
451.184	16083.78
451.401	16132.02
451.618	16186.8
451.835	16235.11
452.052	16281.27
452.27	16325.49
452.487	16373.4
452.704	16420.58
452.921	16471.05
453.138	16518.47
453.355	16564.58
453.572	16611
453.789	16655.78
454.006	16698.85
454.223	16745.24
454.44	16793.62
454.657	16847.15
454.874	16896.22
455.091	16952.09
455.308	16993.24
455.525	17046.84
