Data from test1_MAYP1115451__52__10-17-26-805.txt Node

Date: Wed Jun 12 10:17:26 MDT 2024
User: Modes Lab
Spectrometer: MAYP111545
Trigger mode: 0
Integration Time (sec): 8.000000E-3
Scans to average: 5
Electric dark correction enabled: true
Nonlinearity correction enabled: false
Boxcar width: 5
XAxis mode: Wavelengths
Number of Pixels in Spectrum: 2068
>>>>>Begin Spectral Data<<<<<
165.214	162.63
165.449	161.83
165.683	170.95
165.918	179.93
166.152	186.28
166.387	191.11
166.621	122.75
166.856	161.04
167.09	179.89
167.325	203.6
167.559	220.49
167.794	234.25
168.028	242.13
168.263	243.31
168.497	243.09
168.732	244.51
168.966	245.2
169.2	246.51
169.435	248.6
169.669	249.85
169.903	250.93
170.138	252.15
170.372	252.93
170.606	255.16
170.841	255.98
171.075	256.33
171.309	257.27
171.544	259.16
171.778	260.85
172.012	262.64
172.246	264.24
172.48	266.35
172.715	267.64
172.949	270.29
173.183	271.76
173.417	274.25
173.651	276.44
173.885	278
174.119	278.55
174.354	278.95
174.588	278.44
174.822	278.67
175.056	277.87
175.29	277.55
175.524	276.89
175.758	276.64
175.992	276.84
176.226	277.36
176.46	277.02
176.694	278.49
176.928	279.49
177.162	281.13
177.396	282.02
177.63	284.04
177.864	285.09
178.097	286.75
178.331	287.65
178.565	288.4
178.799	290.09
179.033	290.02
179.267	290.24
179.5	291.18
179.734	291.75
179.968	292.75
180.202	293.16
180.436	294.45
180.669	294.95
180.903	295.33
181.137	296.13
181.371	295.95
181.604	297.16
181.838	298.82
182.072	300.04
182.305	301.44
182.539	302.09
182.772	302.85
183.006	303.76
183.24	305.07
183.473	308.31
183.707	309.85
183.94	311.47
184.174	313.69
184.408	314.91
184.641	316.15
184.875	316.78
185.108	319.25
185.342	320.91
185.575	323.45
185.808	325.45
186.042	325.35
186.275	326.35
186.509	327.53
186.742	329.07
186.976	329.8
187.209	330.29
187.442	332.44
187.676	332.76
187.909	333.93
188.142	333.4
188.376	334.02
188.609	335.15
188.842	336.8
189.076	338.38
189.309	339.25
189.542	340.87
189.775	343.49
190.009	345.6
190.242	348.04
190.475	350.09
190.708	352.15
190.941	354.22
191.174	356.18
191.408	357.18
191.641	359.16
191.874	361.02
192.107	363.53
192.34	364.73
192.573	364.75
192.806	365.84
193.039	367.31
193.272	370.02
193.505	371.51
193.738	373.07
193.971	374.84
194.204	375.55
194.437	377.6
194.67	377.6
194.903	379.85
195.136	381.25
195.369	382.22
195.602	383.62
195.835	385.35
196.068	387.85
196.301	389.24
196.533	391.53
196.766	393.84
196.999	396.4
197.232	398.65
197.465	400.02
197.698	402.98
197.93	405.93
198.163	407.78
198.396	409.55
198.629	410.78
198.861	413.13
199.094	416.27
199.327	418.44
199.559	419.16
199.792	422.04
200.025	424.65
200.257	426.58
200.49	428.71
200.723	431.2
200.955	432.89
201.188	434.84
201.42	437.09
201.653	438.89
201.886	441.31
202.118	444.25
202.351	445.71
202.583	448.71
202.816	451.73
203.048	455.13
203.281	458.45
203.513	460.55
203.745	463.22
203.978	464.91
204.21	465.27
204.443	467
204.675	469
204.907	471.56
205.14	473.42
205.372	476.22
205.605	478.44
205.837	479.64
206.069	481.91
206.302	483.56
206.534	486.25
206.766	489.47
206.998	492.36
207.231	494.67
207.463	496.35
207.695	498.75
207.927	500.69
208.159	501.84
208.392	503.4
208.624	506.62
208.856	509.47
209.088	511.84
209.32	514.47
209.552	516.44
209.784	518.8
210.017	522.56
210.249	524.04
210.481	524.6
210.713	526.56
210.945	529.24
211.177	530.6
211.409	532.42
211.641	534.15
211.873	536.09
212.105	538.35
212.337	539.62
212.569	540.8
212.801	542.24
213.033	545.33
213.264	546.76
213.496	548.87
213.728	550.36
213.96	553.24
214.192	555.44
214.424	556.49
214.656	557.55
214.887	559.82
215.119	561.44
215.351	563.56
215.583	564.71
215.815	567.05
216.046	568.05
216.278	570.36
216.51	570.75
216.741	572.62
216.973	574.53
217.205	576.85
217.436	578.4
217.668	580.38
217.9	580.38
218.131	581.82
218.363	583.47
218.595	585.8
218.826	586.82
219.058	589
219.289	590.07
219.521	591.8
219.752	591.69
219.984	592.02
220.215	593.4
220.447	595.85
220.678	596.65
220.91	597.89
221.141	599.24
221.373	600.02
221.604	600.64
221.836	601.93
222.067	603.31
222.298	604.33
222.53	605.11
222.761	605.36
222.993	605.87
223.224	608.02
223.455	608.53
223.686	608.89
223.918	609.84
224.149	610.2
224.38	610.38
224.612	609.93
224.843	610.2
225.074	611.73
225.305	612.62
225.536	613.67
225.768	613.89
225.999	614.36
226.23	614.42
226.461	615.22
226.692	615.69
226.923	616.76
227.155	619.04
227.386	620.96
227.617	620.69
227.848	620.45
228.079	621.62
228.31	621.76
228.541	623.07
228.772	623.02
229.003	622.87
229.234	622.89
229.465	622.62
229.696	620.16
229.927	620.33
230.158	622.05
230.389	622.07
230.62	622.02
230.85	621.2
231.081	619.18
231.312	620.2
231.543	620.02
231.774	620.31
232.005	620.8
232.236	621.36
232.466	620.87
232.697	619.2
232.928	619.75
233.159	619.67
233.389	619.96
233.62	620.73
233.851	621.95
234.082	621.47
234.312	621.29
234.543	621.96
234.774	621.75
235.004	622.11
235.235	622.58
235.466	622.45
235.696	622.07
235.927	621.84
236.157	621.25
236.388	618.87
236.618	619
236.849	619.09
237.08	618.45
237.31	619.4
237.541	619.53
237.771	619.33
238.002	619.24
238.232	618.96
238.463	619.24
238.693	619.07
238.923	619.73
239.154	619.89
239.384	618.75
239.615	617.82
239.845	616.58
240.075	616.07
240.306	615.45
240.536	614.73
240.766	614.29
240.997	613.53
241.227	611.82
241.457	610.89
241.687	609.67
241.918	609.42
242.148	608.6
242.378	608.87
242.608	608.29
242.839	607.53
243.069	607.95
243.299	606.82
243.529	608.04
243.759	609.55
243.989	607.36
244.22	607.64
244.45	607.31
244.68	606.89
244.91	606.33
245.14	605.65
245.37	605.93
245.6	603.73
245.83	603.95
246.06	602.33
246.29	601.73
246.52	603.27
246.75	603.13
246.98	603.49
247.21	602.82
247.44	602.6
247.67	602.69
247.9	602.33
248.13	602.76
248.359	602.24
248.589	601.4
248.819	600.38
249.049	599.98
249.279	598.78
249.509	597.78
249.738	596.85
249.968	595.69
250.198	593.29
250.428	592.09
250.657	590.62
250.887	589.62
251.117	589.2
251.347	589.95
251.576	588.05
251.806	588.24
252.036	586.22
252.265	586.6
252.495	586.51
252.725	588.05
252.954	588.18
253.184	588.96
253.413	587.29
253.643	586.51
253.873	584.73
254.102	585.16
254.332	585.45
254.561	586.95
254.791	585.38
255.02	583.71
255.25	581.36
255.479	580.51
255.708	580.22
255.938	581.6
256.167	582.15
256.397	580.78
256.626	581.04
256.856	579.35
257.085	578.16
257.314	579.11
257.544	578.84
257.773	580.87
258.002	580.65
258.232	579.31
258.461	577.75
258.69	577.42
258.919	576.78
259.149	575.09
259.378	573.84
259.607	572.98
259.836	570.95
260.065	569.49
260.295	566.64
260.524	565.58
260.753	564.04
260.982	563.44
261.211	561.76
261.44	562.53
261.669	562.38
261.899	562.6
262.128	561.84
262.357	560.53
262.586	561.35
262.815	558.85
263.044	557.89
263.273	560.69
263.502	560.22
263.731	559.93
263.96	559.45
264.189	558.6
264.418	556.49
264.646	556.2
264.875	555.82
265.104	553.71
265.333	555.45
265.562	554.67
265.791	549.24
266.02	547.18
266.249	545.27
266.477	543.36
266.706	541.89
266.935	541.64
267.164	540.24
267.393	539.49
267.621	538.75
267.85	537.49
268.079	536.82
268.307	537.09
268.536	536.58
268.765	536.36
268.993	536.49
269.222	536
269.451	535.76
269.679	536.22
269.908	536.64
270.137	536.71
270.365	537.24
270.594	536.56
270.822	537.53
271.051	538.15
271.279	538.02
271.508	536.49
271.736	537.25
271.965	537.78
272.193	537.85
272.422	537.16
272.65	537.75
272.879	537.27
273.107	537.55
273.336	536.55
273.564	535.36
273.792	534.45
274.021	536.16
274.249	533.58
274.477	531.22
274.706	529.35
274.934	528.53
275.162	526.76
275.391	525.95
275.619	525.27
275.847	524.8
276.075	525.2
276.304	524.84
276.532	522.71
276.76	524.09
276.988	524.38
277.216	524.13
277.445	523.05
277.673	522.62
277.901	522.44
278.129	520.96
278.357	519.36
278.585	517.71
278.813	516.47
279.041	515
279.269	512.69
279.497	511.67
279.725	512.07
279.954	512.31
280.182	512.4
280.41	511.51
280.637	511.65
280.865	512.15
281.093	511.8
281.321	510.82
281.549	511.04
281.777	511.22
282.005	510.15
282.233	509.07
282.461	508.33
282.689	507.27
282.916	506.64
283.144	505.65
283.372	504.6
283.6	505.22
283.828	504.75
284.055	503.75
284.283	503.44
284.511	503.96
284.739	502.65
284.966	501.8
285.194	500.89
285.422	498.69
285.649	498.53
285.877	498.31
286.105	496.18
286.332	495.98
286.56	495.85
286.788	495.16
287.015	495.11
287.243	494.73
287.47	494.35
287.698	494.73
287.925	494.6
288.153	494.4
288.381	493
288.608	493.8
288.836	492.71
289.063	492.84
289.29	492.62
289.518	492.65
289.745	491.47
289.973	491.4
290.2	489.62
290.428	489
290.655	488.09
290.882	488.16
291.11	487.38
291.337	488.35
291.564	485.73
291.792	484.85
292.019	483.44
292.246	483.65
292.473	482.4
292.701	482.8
292.928	483.76
293.155	482.58
293.382	482.78
293.61	483.4
293.837	481.8
294.064	482.27
294.291	481.11
294.518	480.51
294.745	478.75
294.972	478.84
295.2	477.85
295.427	476.15
295.654	475.16
295.881	473.38
296.108	471.22
296.335	471.4
296.562	471.49
296.789	470.73
297.016	470.67
297.243	470.69
297.47	470.42
297.697	470.95
297.924	470.62
298.151	470.67
298.378	471.11
298.604	471.42
298.831	470.13
299.058	469.51
299.285	469.13
299.512	468.25
299.739	468.16
299.966	467.82
300.192	466.25
300.419	465.64
300.646	466.22
300.873	465.65
301.099	464.51
301.326	463.91
301.553	462.58
301.78	463.73
302.006	462.58
302.233	462.67
302.46	461.11
302.686	460.31
302.913	460.25
303.14	458.82
303.366	459.11
303.593	458.64
303.819	459.47
304.046	459.78
304.272	458.4
304.499	459.05
304.725	457.96
304.952	457.49
305.179	458.29
305.405	457.98
305.631	458.87
305.858	458.85
306.084	458.31
306.311	458.04
306.537	457.25
306.764	456.15
306.99	454.8
307.216	455.09
307.443	455.6
307.669	454.76
307.895	454.53
308.122	453.62
308.348	452.93
308.574	453.58
308.801	453.22
309.027	453.47
309.253	454.02
309.479	454.16
309.706	453.55
309.932	452.42
310.158	452.16
310.384	451.76
310.61	452.09
310.837	451.35
311.063	449.84
311.289	448.85
311.515	447.4
311.741	446.6
311.967	446.96
312.193	447.38
312.419	448.07
312.645	448.25
312.871	448.31
313.097	447.58
313.323	447.31
313.549	448.8
313.775	449.35
314.001	450.98
314.227	451.4
314.453	452.11
314.679	452.05
314.905	452.98
315.131	452.71
315.357	452.95
315.583	453.05
315.809	452.62
316.034	452.85
316.26	453.76
316.486	455.05
316.712	455.18
316.938	454.24
317.163	455.02
317.389	454.67
317.615	455.55
317.841	455.98
318.066	457.07
318.292	459
318.518	460.09
318.743	459.71
318.969	458.56
319.195	461.62
319.42	462.24
319.646	463.11
319.872	463.51
320.097	464.89
320.323	465.71
320.548	466.98
320.774	468.55
320.999	468.36
321.225	468.91
321.45	469.95
321.676	469.24
321.901	470.45
322.127	471.29
322.352	473.24
322.578	474.47
322.803	475.73
323.029	476.73
323.254	477.33
323.479	479.42
323.705	482.13
323.93	484.96
324.155	487.07
324.381	489.22
324.606	490.73
324.831	493.6
325.057	495.04
325.282	497.96
325.507	498.75
325.732	501.87
325.958	504.42
326.183	505.8
326.408	508.29
326.633	509.87
326.858	511.69
327.084	514.69
327.309	515.51
327.534	518.22
327.759	519.16
327.984	522.13
328.209	523.89
328.434	526.45
328.659	530.31
328.884	531.8
329.109	534.51
329.334	538.47
329.559	541.4
329.784	545.02
330.009	549.09
330.234	553.42
330.459	557.65
330.684	560.07
330.909	563.98
331.134	566.87
331.359	570.69
331.584	576.16
331.809	579.56
332.034	583.73
332.259	588.73
332.483	592.33
332.708	596.56
332.933	600.64
333.158	606.76
333.383	611.49
333.607	617.24
333.832	623.56
334.057	628.84
334.282	634.07
334.506	639.65
334.731	644.02
334.956	650.56
335.18	656.04
335.405	662.24
335.63	667.51
335.854	672.67
336.079	677.91
336.303	682.09
336.528	687.45
336.753	693.91
336.977	700.31
337.202	705.67
337.426	711.09
337.651	717.93
337.875	723.87
338.1	730.93
338.324	737.73
338.549	745.09
338.773	754.07
338.997	760.44
339.222	767.22
339.446	772.58
339.671	780.4
339.895	787.67
340.119	795.05
340.344	803.36
340.568	810.24
340.792	817.73
341.017	823.89
341.241	830
341.465	838.84
341.689	846.64
341.914	856.84
342.138	866.07
342.362	874.58
342.586	881.36
342.811	889.56
343.035	897.87
343.259	907.75
343.483	917.25
343.707	926.87
343.931	936.2
344.155	947.25
344.38	955.25
344.604	964.64
344.828	974.29
345.052	985.25
345.276	994.07
345.5	1002.76
345.724	1010.89
345.948	1022.93
346.172	1032.13
346.396	1038.91
346.62	1048.65
346.844	1057.89
347.068	1067.31
347.292	1076.31
347.515	1087.75
347.739	1098.75
347.963	1109.36
348.187	1118.96
348.411	1127.15
348.635	1137.35
348.859	1150.27
349.082	1159.18
349.306	1170.62
349.53	1181.13
349.754	1191.35
349.977	1199.84
350.201	1209
350.425	1221.13
350.649	1233.73
350.872	1245.82
351.096	1257.76
351.32	1268.98
351.543	1279.25
351.767	1290.36
351.99	1301.4
352.214	1311.02
352.438	1323.22
352.661	1336.29
352.885	1347.56
353.108	1357.31
353.332	1368.75
353.555	1377.69
353.779	1389.93
354.002	1402.29
354.226	1413.82
354.449	1424.84
354.673	1439.51
354.896	1450.29
355.12	1463.44
355.343	1475.04
355.566	1487.45
355.79	1499.22
356.013	1515.67
356.237	1526.6
356.46	1537.4
356.683	1547.82
356.907	1560.76
357.13	1572.18
357.353	1585.62
357.576	1595.65
357.8	1607.85
358.023	1622.18
358.246	1633.29
358.469	1643.55
358.693	1656.18
358.916	1669.75
359.139	1682.95
359.362	1697.22
359.585	1710.47
359.808	1723.16
360.031	1736.8
360.255	1750.2
360.478	1760.93
360.701	1775.98
360.924	1789.53
361.147	1802.2
361.37	1814.38
361.593	1829.02
361.816	1840.31
362.039	1853.29
362.262	1866.38
362.485	1880.05
362.708	1893.36
362.931	1908.49
363.154	1920.89
363.377	1933.36
363.599	1948.15
363.822	1964.02
364.045	1978.73
364.268	1991.62
364.491	2008.13
364.714	2024.25
364.936	2038.35
365.159	2053.76
365.382	2068.69
365.605	2082.35
365.828	2101.58
366.05	2117.45
366.273	2132.04
366.496	2146.56
366.718	2164.42
366.941	2177.38
367.164	2192.47
367.386	2207.69
367.609	2222.07
367.832	2237.09
368.054	2255.47
368.277	2267.87
368.5	2279.69
368.722	2296.44
368.945	2314.55
369.167	2328.38
369.39	2344.69
369.612	2359.64
369.835	2376.47
370.057	2393.07
370.28	2408.78
370.502	2422.35
370.725	2438.13
370.947	2458.58
371.169	2476.4
371.392	2490.11
371.614	2507.67
371.837	2524.02
372.059	2538.07
372.281	2554.75
372.504	2571.36
372.726	2588.65
372.948	2605.22
373.171	2624.87
373.393	2642.84
373.615	2658.47
373.837	2676.31
374.06	2698.98
374.282	2717.38
374.504	2740.53
374.726	2761.67
374.948	2780.15
375.17	2799.45
375.393	2820.42
375.615	2836.55
375.837	2853.84
376.059	2873.11
376.281	2893.29
376.503	2908.29
376.725	2926.04
376.947	2943.22
377.169	2959.65
377.391	2980.27
377.613	3001.35
377.835	3022.22
378.057	3043.6
378.279	3065.11
378.501	3086.84
378.723	3110.58
378.945	3129.2
379.167	3154.27
379.389	3178.24
379.611	3201.16
379.833	3225.24
380.054	3246.02
380.276	3267.64
380.498	3290.71
380.72	3314.2
380.942	3337.4
381.163	3355.36
381.385	3383.89
381.607	3407.71
381.829	3430.98
382.05	3456.16
382.272	3479.36
382.494	3506.15
382.716	3534.55
382.937	3558.02
383.159	3581.91
383.381	3608.87
383.602	3639.93
383.824	3664.35
384.045	3687.4
384.267	3714.8
384.488	3740.42
384.71	3766.73
384.932	3789.65
385.153	3811.38
385.375	3841.22
385.596	3867.55
385.818	3895.44
386.039	3921.04
386.261	3947.67
386.482	3976.71
386.703	4003.64
386.925	4030.44
387.146	4058.42
387.368	4089.55
387.589	4118.6
387.81	4146.55
388.032	4176.58
388.253	4204.22
388.474	4233.15
388.696	4264.84
388.917	4293.49
389.138	4322.65
389.359	4352.13
389.581	4382.42
389.802	4411.04
390.023	4440.18
390.244	4469.18
390.465	4499.27
390.687	4527.64
390.908	4558.09
391.129	4587.93
391.35	4618.35
391.571	4650.6
391.792	4682.98
392.013	4711.65
392.234	4743.07
392.455	4777.27
392.677	4811.36
392.898	4842.96
393.119	4874.05
393.34	4905.38
393.561	4933.45
393.782	4965.27
394.003	4994.2
394.223	5022.75
394.444	5056.18
394.665	5088.95
394.886	5121.96
395.107	5148.47
395.328	5182.96
395.549	5218.07
395.77	5250.67
395.99	5287.07
396.211	5322.96
396.432	5358.36
396.653	5395.22
396.874	5428.65
397.094	5459.96
397.315	5490.02
397.536	5525.84
397.757	5555.93
397.977	5585.62
398.198	5618.6
398.419	5653.04
398.639	5686.75
398.86	5719.04
399.081	5753.07
399.301	5788.42
399.522	5823.64
399.742	5859.78
399.963	5896.78
400.184	5931.42
400.404	5968.33
400.625	6001.4
400.845	6033.22
401.066	6064.36
401.286	6096.15
401.507	6129.76
401.727	6161.35
401.948	6193.04
402.168	6227.71
402.388	6261.16
402.609	6298.53
402.829	6332.25
403.05	6371.76
403.27	6407.13
403.49	6442.4
403.711	6475.91
403.931	6509.18
404.151	6545.96
404.372	6582.64
404.592	6616.85
404.812	6650.89
405.032	6681.8
405.253	6713.85
405.473	6743.69
405.693	6773.15
405.913	6805.4
406.133	6841.16
406.353	6880.69
406.574	6916.4
406.794	6953.98
407.014	6989.44
407.234	7025.67
407.454	7060.24
407.674	7097.31
407.894	7133.47
408.114	7173.04
408.334	7211.16
408.554	7252.91
408.774	7281.71
408.994	7315.33
409.214	7350.84
409.434	7385.44
409.654	7420.42
409.874	7457.33
410.094	7494.64
410.314	7531.65
410.534	7570.04
410.754	7607.78
410.974	7641.53
411.193	7682.31
411.413	7721.8
411.633	7759.91
411.853	7801.8
412.073	7838.36
412.292	7877.73
412.512	7918.78
412.732	7954.33
412.952	7991.62
413.171	8031.53
413.391	8071.42
413.611	8113.47
413.831	8155.95
414.05	8197.58
414.27	8239.65
414.489	8285.49
414.709	8330.44
414.929	8373.33
415.148	8422.53
415.368	8472.25
415.587	8514.22
415.807	8557.16
416.026	8602.85
416.246	8645.64
416.465	8685.85
416.685	8727.98
416.904	8774.85
417.124	8819.49
417.343	8864.53
417.563	8908.25
417.782	8950.2
418.002	8995.47
418.221	9040.78
418.44	9079.73
418.66	9118.87
418.879	9164.91
419.098	9203.36
419.318	9240.76
419.537	9284.95
419.756	9324.62
419.976	9365.89
420.195	9410.82
420.414	9454.76
420.633	9497.04
420.853	9545.18
421.072	9590.24
421.291	9636.89
421.51	9687.76
421.729	9728.89
421.948	9768.05
422.168	9817.62
422.387	9860.16
422.606	9900.58
422.825	9945.29
423.044	9989.2
423.263	10027.71
423.482	10077.91
423.701	10118
423.92	10161.96
424.139	10210.2
424.358	10258.67
424.577	10304.71
424.796	10353.89
425.015	10407.44
425.234	10454.11
425.453	10506.11
425.672	10558.2
425.891	10599.82
426.11	10650.53
426.328	10694.45
426.547	10744.65
426.766	10788.13
426.985	10828.36
427.204	10869.75
427.422	10912.13
427.641	10957.67
427.86	11002.6
428.079	11046.93
428.297	11095.25
428.516	11144.05
428.735	11190.38
428.954	11236.96
429.172	11286.45
429.391	11340.45
429.61	11389.78
429.828	11433.4
430.047	11485.69
430.265	11532.31
430.484	11578.44
430.703	11623.49
430.921	11666.55
431.14	11712.98
431.358	11762.49
431.577	11812.11
431.795	11855.89
432.014	11910.71
432.232	11959.96
432.451	12008.09
432.669	12054.04
432.887	12099.55
433.106	12150.85
433.324	12197.71
433.543	12248.78
433.761	12296.09
433.979	12339.62
434.198	12384.89
434.416	12422.75
434.634	12467.35
434.853	12506.84
435.071	12555
435.289	12603.69
435.507	12652.05
435.726	12694.4
435.944	12741.04
436.162	12780.64
436.38	12827.78
436.598	12875.87
436.817	12923.8
437.035	12975.53
437.253	13025.65
437.471	13069.55
437.689	13120.31
437.907	13164.65
438.125	13221.8
438.343	13269.65
438.561	13322.95
438.78	13369.73
438.998	13418.87
439.216	13467.76
439.434	13509.69
439.652	13554.76
439.869	13600.56
440.087	13647.87
440.305	13695.33
440.523	13739.27
440.741	13782.33
440.959	13829.53
441.177	13877.89
441.395	13925.33
441.613	13972.51
441.831	14027
442.048	14074.75
442.266	14126.33
442.484	14169.78
442.702	14220.25
442.919	14270.49
443.137	14327.49
443.355	14376.53
443.573	14427.11
443.79	14477.38
444.008	14534.73
444.226	14579.24
444.443	14627.96
444.661	14675.05
444.879	14730.6
445.096	14779.11
445.314	14828.47
445.532	14873.15
445.749	14921.76
445.967	14967.85
446.184	15010.27
446.402	15057.04
446.619	15102.95
446.837	15151.38
447.054	15203.69
447.272	15249.2
447.489	15288.18
447.707	15335.36
447.924	15383.24
448.141	15433.65
448.359	15482.55
448.576	15536.35
448.794	15577.38
449.011	15626.36
449.228	15672.18
449.446	15725.27
449.663	15767.51
449.88	15819.8
450.098	15869.02
450.315	15915.64
450.532	15955.4
450.749	16007.73
450.967	16053.31
451.184	16104.38
451.401	16155.89
451.618	16204.27
451.835	16242.16
452.052	16294.16
452.27	16347.51
452.487	16389.84
452.704	16437.02
452.921	16495.65
453.138	16539.95
453.355	16584.75
453.572	16631.95
453.789	16670.76
454.006	16722.65
454.223	16769.85
454.44	16817.8
454.657	16863.84
454.874	16911.55
