Data from test1_MAYP1115451__73__10-17-34-062.txt Node

Date: Wed Jun 12 10:17:34 MDT 2024
User: Modes Lab
Spectrometer: MAYP111545
Trigger mode: 0
Integration Time (sec): 8.000000E-3
Scans to average: 5
Electric dark correction enabled: true
Nonlinearity correction enabled: false
Boxcar width: 5
XAxis mode: Wavelengths
Number of Pixels in Spectrum: 2068
>>>>>Begin Spectral Data<<<<<
165.214	163.6
165.449	163.17
165.683	172.54
165.918	181.52
166.152	186.95
166.387	192.22
166.621	123.68
166.856	162.18
167.09	181.11
167.325	203.51
167.559	220.09
167.794	234.31
168.028	241.58
168.263	242.51
168.497	242.13
168.732	243.29
168.966	244.69
169.2	245.98
169.435	247.4
169.669	248.66
169.903	251.49
170.138	252.48
170.372	252.64
170.606	254.28
170.841	255.28
171.075	257.08
171.309	259.38
171.544	260.88
171.778	262.78
172.012	264.33
172.246	265.57
172.48	267.28
172.715	270.09
172.949	273.26
173.183	275.66
173.417	277.71
173.651	279
173.885	280.57
174.119	281.08
174.354	282.04
174.588	283.62
174.822	284.73
175.056	284.17
175.29	283.8
175.524	282.64
175.758	282.17
175.992	283.09
176.226	282.89
176.46	282.91
176.694	283.97
176.928	284.68
177.162	284.73
177.396	285.26
177.63	286.2
177.864	287.29
178.097	288.98
178.331	290.22
178.565	290.75
178.799	291.55
179.033	292.48
179.267	293.11
179.5	293.04
179.734	293.62
179.968	295.02
180.202	296.06
180.436	296.42
180.669	297.68
180.903	298.86
181.137	300
181.371	301.51
181.604	301.82
181.838	302.97
182.072	304.77
182.305	306
182.539	306.15
182.772	307.98
183.006	310.04
183.24	310.02
183.473	312.82
183.707	313.04
183.94	314.17
184.174	315.77
184.408	316.49
184.641	317.89
184.875	318.28
185.108	320.2
185.342	320.75
185.575	321.17
185.808	322.75
186.042	322.73
186.275	324.62
186.509	326.2
186.742	327.15
186.976	328.26
187.209	329.18
187.442	331.24
187.676	331.98
187.909	332.57
188.142	333.71
188.376	335.8
188.609	336.93
188.842	338.11
189.076	340.11
189.309	341.89
189.542	343.17
189.775	345.13
190.009	347.38
190.242	349.95
190.475	352.64
190.708	354.69
190.941	356.04
191.174	357.71
191.408	359.26
191.641	359.73
191.874	360.62
192.107	363.09
192.34	365.15
192.573	366.08
192.806	367.6
193.039	368.58
193.272	371.09
193.505	373.82
193.738	375
193.971	376.55
194.204	378.53
194.437	380.58
194.67	382.62
194.903	384.44
195.136	386.08
195.369	387.04
195.602	389.08
195.835	390.51
196.068	392.02
196.301	393.2
196.533	395.46
196.766	397.04
196.999	399.51
197.232	400.78
197.465	401.24
197.698	403.02
197.93	406.38
198.163	408.71
198.396	410.95
198.629	411.86
198.861	414.13
199.094	416.49
199.327	419.31
199.559	421.15
199.792	423.49
200.025	425.84
200.257	429.93
200.49	431.24
200.723	433.84
200.955	435.77
201.188	438.82
201.42	442.53
201.653	445.58
201.886	448.11
202.118	450.04
202.351	451.53
202.583	455.28
202.816	456.42
203.048	459.06
203.281	460.44
203.513	462.02
203.745	464.17
203.978	465.35
204.21	466.53
204.443	468.13
204.675	471.29
204.907	474.04
205.14	474.66
205.372	475.42
205.605	477
205.837	480
206.069	481.98
206.302	483.49
206.534	484.89
206.766	486.86
206.998	489.31
207.231	491.06
207.463	493.18
207.695	496.75
207.927	499.89
208.159	502.02
208.392	502.62
208.624	505.08
208.856	507.51
209.088	511.17
209.32	512.57
209.552	514.33
209.784	515.93
210.017	518.11
210.249	519.93
210.481	522.51
210.713	525.57
210.945	528.35
211.177	530.48
211.409	532.51
211.641	533.68
211.873	535.73
212.105	537.71
212.337	540.49
212.569	542.13
212.801	544.58
213.033	546.22
213.264	547.46
213.496	549.82
213.728	551.8
213.96	554.6
214.192	555.73
214.424	557.58
214.656	559.2
214.887	560.31
215.119	563.2
215.351	564.29
215.583	565.44
215.815	566.62
216.046	569.26
216.278	571.13
216.51	571.69
216.741	574.44
216.973	576.75
217.205	579.4
217.436	581.31
217.668	583.18
217.9	584.62
218.131	587.26
218.363	589.26
218.595	588.98
218.826	590.06
219.058	592.55
219.289	593.46
219.521	595.15
219.752	595.62
219.984	596.26
220.215	596.22
220.447	596.4
220.678	596.48
220.91	597.38
221.141	599.71
221.373	600.38
221.604	599.89
221.836	600.95
222.067	602.51
222.298	602.68
222.53	604.68
222.761	605.73
222.993	606.46
223.224	608.13
223.455	608.82
223.686	609.09
223.918	609.09
224.149	611.22
224.38	612.04
224.612	611.06
224.843	611.88
225.074	612.95
225.305	613.6
225.536	614.49
225.768	614.57
225.999	615.33
226.23	614.82
226.461	615.82
226.692	614.04
226.923	614.15
227.155	616.86
227.386	618.77
227.617	617.53
227.848	616.78
228.079	618.33
228.31	619.11
228.541	619.49
228.772	619.97
229.003	619.95
229.234	621.88
229.465	623.06
229.696	620.57
229.927	619.26
230.158	619.42
230.389	619.57
230.62	619
230.85	619.06
231.081	619.09
231.312	619.8
231.543	620.13
231.774	619.95
232.005	618.98
232.236	619.38
232.466	619.51
232.697	620.91
232.928	620.84
233.159	620.49
233.389	620.46
233.62	620.8
233.851	620.29
234.082	621.48
234.312	620.78
234.543	621.13
234.774	621.44
235.004	622.66
235.235	622.62
235.466	623.98
235.696	623.44
235.927	623.38
236.157	622.51
236.388	623.18
236.618	623.75
236.849	624.68
237.08	624.22
237.31	624.29
237.541	622.57
237.771	620.22
238.002	620.11
238.232	620.64
238.463	618.66
238.693	618.71
238.923	618.69
239.154	617.66
239.384	617.42
239.615	617.37
239.845	617.2
240.075	618.24
240.306	619.51
240.536	618.46
240.766	617.18
240.997	618.06
241.227	616.95
241.457	615.26
241.687	613.66
241.918	613.35
242.148	612.57
242.378	611.8
242.608	610.6
242.839	609.64
243.069	608.95
243.299	609.51
243.529	609.58
243.759	610.64
243.989	609.64
244.22	609.51
244.45	607.66
244.68	607.55
244.91	607.31
245.14	606.42
245.37	605.09
245.6	604.89
245.83	604.38
246.06	603.44
246.29	603
246.52	603.04
246.75	603.48
246.98	604.04
247.21	602.62
247.44	600.78
247.67	599.82
247.9	599.69
248.13	599.18
248.359	597.38
248.589	596.4
248.819	594.86
249.049	594.71
249.279	593.78
249.509	592.28
249.738	593.11
249.968	593.91
250.198	593.11
250.428	593.09
250.657	591.95
250.887	593.33
251.117	592.93
251.347	592.62
251.576	592.51
251.806	591.18
252.036	590.24
252.265	588.64
252.495	587.95
252.725	586.58
252.954	586.04
253.184	585.58
253.413	584.18
253.643	583.91
253.873	581.71
254.102	582.73
254.332	582
254.561	582.68
254.791	582.62
255.02	582.71
255.25	585.02
255.479	584.44
255.708	583.69
255.938	583.11
256.167	581.97
256.397	582.18
256.626	580.84
256.856	580.48
257.085	580.58
257.314	579.62
257.544	577.44
257.773	576.49
258.002	576.97
258.232	576.29
258.461	575.24
258.69	575.17
258.919	574.4
259.149	572.26
259.378	571.8
259.607	569.95
259.836	569.73
260.065	570.17
260.295	568.38
260.524	567.11
260.753	567.08
260.982	565.78
261.211	564.86
261.44	564.38
261.669	564.42
261.899	564.75
262.128	564.55
262.357	564.09
262.586	563.02
262.815	562.62
263.044	561.26
263.273	562.86
263.502	562.86
263.731	562.48
263.96	561.77
264.189	560.98
264.418	558.49
264.646	557.6
264.875	555.4
265.104	554.08
265.333	553.37
265.562	552.09
265.791	547.77
266.02	545.42
266.249	544.66
266.477	544.13
266.706	542.04
266.935	541.09
267.164	540.06
267.393	539.2
267.621	538.84
267.85	538.31
268.079	538.24
268.307	539.31
268.536	540.89
268.765	539.57
268.993	538.97
269.222	538.84
269.451	539.51
269.679	539.93
269.908	541.4
270.137	541.44
270.365	539.71
270.594	538.78
270.822	537.75
271.051	538.15
271.279	538.69
271.508	540.06
271.736	540.57
271.965	540.8
272.193	540.04
272.422	538.93
272.65	538.2
272.879	538.49
273.107	538.17
273.336	537.98
273.564	536.28
273.792	535.18
274.021	533.26
274.249	531.17
274.477	530.55
274.706	529.09
274.934	528.29
275.162	527.78
275.391	527.33
275.619	526.97
275.847	526.89
276.075	526.71
276.304	526.17
276.532	524.55
276.76	524.38
276.988	522.31
277.216	521.62
277.445	521.04
277.673	520.31
277.901	519.78
278.129	519.49
278.357	517.97
278.585	515.48
278.813	514.29
279.041	514.29
279.269	514.58
279.497	514.33
279.725	513.88
279.954	513.31
280.182	512.91
280.41	511.91
280.637	510.37
280.865	510.48
281.093	511.82
281.321	511.22
281.549	511.06
281.777	511.64
282.005	511.71
282.233	512
282.461	510.8
282.689	508.8
282.916	509.4
283.144	510.09
283.372	509.44
283.6	507.49
283.828	507.13
284.055	506.18
284.283	505.58
284.511	504.98
284.739	503.33
284.966	503.37
285.194	503.44
285.422	500.97
285.649	499.4
285.877	497.75
286.105	499.26
286.332	499.2
286.56	498.24
286.788	496.93
287.015	496.48
287.243	497.17
287.47	497.66
287.698	497.29
287.925	497.97
288.153	498.6
288.381	499.46
288.608	498.24
288.836	497.17
289.063	497.09
289.29	495.8
289.518	495.71
289.745	493.89
289.973	492.22
290.2	493.17
290.428	492.97
290.655	491.58
290.882	489.46
291.11	487.46
291.337	487.49
291.564	485.69
291.792	485.11
292.019	484.84
292.246	485.2
292.473	484.69
292.701	482.57
292.928	482.2
293.155	482.2
293.382	482.55
293.61	482.31
293.837	482.13
294.064	483.09
294.291	483.46
294.518	482.2
294.745	480.38
294.972	479.98
295.2	480.02
295.427	478.11
295.654	477.46
295.881	476.28
296.108	476.42
296.335	475.84
296.562	475.95
296.789	474.8
297.016	474.49
297.243	475.28
297.47	474.29
297.697	472.89
297.924	472.4
298.151	471.57
298.378	472.38
298.604	471.57
298.831	470.38
299.058	468.88
299.285	468.68
299.512	468.13
299.739	467.46
299.966	468.15
300.192	469.11
300.419	469.46
300.646	468.93
300.873	466.55
301.099	466.84
301.326	466.51
301.553	466.15
301.78	466.91
302.006	465.89
302.233	465.64
302.46	464.17
302.686	464.38
302.913	464.06
303.14	464.46
303.366	464.91
303.593	464.6
303.819	463.73
304.046	462.77
304.272	461.08
304.499	461.6
304.725	461.29
304.952	460.04
305.179	458.53
305.405	457.73
305.631	456.31
305.858	456.4
306.084	455.6
306.311	455.84
306.537	456.69
306.764	455.73
306.99	454.09
307.216	453.55
307.443	454.53
307.669	455.22
307.895	454.75
308.122	454.62
308.348	454.51
308.574	453.11
308.801	453.24
309.027	451.58
309.253	450.98
309.479	450.51
309.706	450.6
309.932	449.51
310.158	448.17
310.384	448.75
310.61	448.58
310.837	448
311.063	449.06
311.289	448.24
311.515	448.86
311.741	450.02
311.967	450.93
312.193	450.77
312.419	451.71
312.645	452.22
312.871	451.75
313.097	451.91
313.323	451.93
313.549	452.18
313.775	453.37
314.001	453.82
314.227	453.4
314.453	453.86
314.679	453.75
314.905	454.91
315.131	454.29
315.357	454.48
315.583	454.38
315.809	454.68
316.034	454.4
316.26	453.73
316.486	453.86
316.712	454.75
316.938	454.04
317.163	454.97
317.389	454.57
317.615	455.38
317.841	456.75
318.066	456.89
318.292	458.13
318.518	458.69
318.743	459.82
318.969	461.04
319.195	462.46
319.42	463.53
319.646	464.04
319.872	463.91
320.097	463.88
320.323	464.13
320.548	467.29
320.774	467.66
320.999	470.08
321.225	471.06
321.45	472.11
321.676	472.98
321.901	475.15
322.127	477.04
322.352	479.6
322.578	482.4
322.803	484.04
323.029	483.26
323.254	485.26
323.479	486
323.705	486.93
323.93	488.51
324.155	490
324.381	490.6
324.606	492.44
324.831	493.37
325.057	495.98
325.282	498.06
325.507	500.89
325.732	502.6
325.958	504.24
326.183	508.02
326.408	509.44
326.633	511.77
326.858	515.18
327.084	516.68
327.309	520.55
327.534	521.84
327.759	524.84
327.984	528.48
328.209	531.06
328.434	534.53
328.659	537.58
328.884	542.49
329.109	545.15
329.334	548.62
329.559	552.93
329.784	554.89
330.009	557.58
330.234	561.13
330.459	563.86
330.684	567.04
330.909	569.98
331.134	572.8
331.359	575.13
331.584	579.13
331.809	581.97
332.034	585.64
332.259	590.4
332.483	596.22
332.708	600.04
332.933	603.48
333.158	608.38
333.383	614.15
333.607	618.69
333.832	622.86
334.057	627.86
334.282	633.75
334.506	637.64
334.731	642.78
334.956	648.98
335.18	654.4
335.405	660.88
335.63	666.46
335.854	670.78
336.079	676.02
336.303	682.38
336.528	688.73
336.753	694.02
336.977	700.49
337.202	707.24
337.426	712.04
337.651	718.42
337.875	726.26
338.1	733.64
338.324	741.35
338.549	747.53
338.773	755.13
338.997	761.2
339.222	768.89
339.446	776.29
339.671	784.69
339.895	791.8
340.119	798.69
340.344	804.73
340.568	812.02
340.792	820
341.017	828.8
341.241	838.11
341.465	847.04
341.689	854.53
341.914	863.22
342.138	870.17
342.362	878.09
342.586	887
342.811	895.09
343.035	903
343.259	910.49
343.483	920.73
343.707	926.4
343.931	935.33
344.155	944.02
344.38	952.55
344.604	961.48
344.828	971.44
345.052	980.44
345.276	991.78
345.5	1000.98
345.724	1010.28
345.948	1018.93
346.172	1029.13
346.396	1037.53
346.62	1048.31
346.844	1057.4
347.068	1065.98
347.292	1075.48
347.515	1085.11
347.739	1095.48
347.963	1106.09
348.187	1116.84
348.411	1126.37
348.635	1136.35
348.859	1147.78
349.082	1158.04
349.306	1169.4
349.53	1180.78
349.754	1192.15
349.977	1204.06
350.201	1213
350.425	1225.24
350.649	1235.02
350.872	1246.37
351.096	1257.15
351.32	1268.57
351.543	1280.42
351.767	1293.11
351.99	1305.49
352.214	1314.98
352.438	1326.13
352.661	1336.4
352.885	1346.93
353.108	1359.73
353.332	1370.57
353.555	1383.49
353.779	1396.55
354.002	1407.68
354.226	1417.97
354.449	1428.29
354.673	1442.84
354.896	1452.78
355.12	1466.84
355.343	1479.44
355.566	1490
355.79	1503.73
356.013	1515.06
356.237	1526.73
356.46	1539.57
356.683	1551.6
356.907	1563.57
357.13	1573.84
357.353	1586.64
357.576	1599.82
357.8	1609.62
358.023	1623.86
358.246	1634.15
358.469	1647.84
358.693	1659.46
358.916	1672.49
359.139	1685.46
359.362	1698.69
359.585	1712.51
359.808	1727.06
360.031	1739.33
360.255	1754.84
360.478	1767.42
360.701	1782.26
360.924	1796.42
361.147	1808.6
361.37	1821.84
361.593	1834.93
361.816	1849.02
362.039	1861.37
362.262	1877.98
362.485	1890.6
362.708	1902.91
362.931	1916.97
363.154	1930.64
363.377	1943.04
363.599	1956.31
363.822	1967.75
364.045	1983.57
364.268	1997.88
364.491	2014.08
364.714	2024.95
364.936	2039.4
365.159	2053.53
365.382	2068.89
365.605	2081.38
365.828	2097
366.05	2114.24
366.273	2131.97
366.496	2144.49
366.718	2160.13
366.941	2175.75
367.164	2190.77
367.386	2205.55
367.609	2223.82
367.832	2239.28
368.054	2256.98
368.277	2272.69
368.5	2286.4
368.722	2300.48
368.945	2316.77
369.167	2333.33
369.39	2348.77
369.612	2364.8
369.835	2381.38
370.057	2397.04
370.28	2412.84
370.502	2430.06
370.725	2446.26
370.947	2466.98
371.169	2483.44
371.392	2500.4
371.614	2515.62
371.837	2532.71
372.059	2549.09
372.281	2566.13
372.504	2583.22
372.726	2600.06
372.948	2614.69
373.171	2632.58
373.393	2648.48
373.615	2668.44
373.837	2685.86
374.06	2703.4
374.282	2721.35
374.504	2739.93
374.726	2754.93
374.948	2771.26
375.17	2790.68
375.393	2811.75
375.615	2827.82
375.837	2844.55
376.059	2861.53
376.281	2881.8
376.503	2902.02
376.725	2921.49
376.947	2943.38
377.169	2966.97
377.391	2990.8
377.613	3012.33
377.835	3031.97
378.057	3054.28
378.279	3075.64
378.501	3097.62
378.723	3118.2
378.945	3140.29
379.167	3161.49
379.389	3181.06
379.611	3204.4
379.833	3223.28
380.054	3241.64
380.276	3263.84
380.498	3288.77
380.72	3315.75
380.942	3339.48
381.163	3364.11
381.385	3386.97
381.607	3411.2
381.829	3435.98
382.05	3458.28
382.272	3484.46
382.494	3514.17
382.716	3539.82
382.937	3561.42
383.159	3582.97
383.381	3603.84
383.602	3629.77
383.824	3655.97
384.045	3680.93
384.267	3704.69
384.488	3732.37
384.71	3758.62
384.932	3783
385.153	3810.28
385.375	3837.26
385.596	3862.38
385.818	3894.09
386.039	3923.38
386.261	3950.48
386.482	3979.97
386.703	4010.89
386.925	4037.02
387.146	4064.06
387.368	4090.57
387.589	4120.33
387.81	4154.6
388.032	4186
388.253	4215.6
388.474	4239.37
388.696	4267.62
388.917	4296.11
389.138	4324.17
389.359	4354.33
389.581	4383.13
389.802	4413.24
390.023	4441.75
390.244	4466.28
390.465	4494.86
390.687	4523.24
390.908	4553.26
391.129	4584.78
391.35	4612.38
391.571	4643.24
391.792	4675.86
392.013	4705.22
392.234	4734.84
392.455	4763.95
392.677	4797.68
392.898	4827.93
393.119	4860.28
393.34	4895.53
393.561	4926.4
393.782	4960.55
394.003	4992.28
394.223	5021.95
394.444	5057.17
394.665	5095.06
394.886	5128.69
395.107	5160.78
395.328	5195.26
395.549	5228.6
395.77	5262.08
395.99	5297.06
396.211	5329.2
396.432	5367.29
396.653	5399.29
396.874	5432.17
397.094	5462.08
397.315	5493.98
397.536	5529.09
397.757	5563.38
397.977	5595.55
398.198	5626.53
398.419	5656.95
398.639	5694.28
398.86	5722.68
399.081	5760.58
399.301	5794.88
399.522	5828.4
399.742	5865.49
399.963	5895.42
400.184	5927.84
400.404	5960.6
400.625	5991.24
400.845	6027.58
401.066	6059.31
401.286	6095.46
401.507	6128.57
401.727	6158.64
401.948	6193
402.168	6223.84
402.388	6260.98
402.609	6295.06
402.829	6332.55
403.05	6369.18
403.27	6401.46
403.49	6437.68
403.711	6473
403.931	6504.88
404.151	6542.69
404.372	6574.4
404.592	6612.6
404.812	6640.57
405.032	6674.68
405.253	6706.38
405.473	6743.13
405.693	6780.28
405.913	6812.02
406.133	6846.69
406.353	6884.09
406.574	6920.02
406.794	6955.33
407.014	6988.88
407.234	7030.11
407.454	7069.02
407.674	7103.89
407.894	7139.91
408.114	7177.15
408.334	7209.06
408.554	7243.58
408.774	7277.95
408.994	7313.26
409.214	7353.93
409.434	7389.24
409.654	7424.98
409.874	7459.48
410.094	7497.68
410.314	7533.95
410.534	7568.68
410.754	7612.73
410.974	7652.33
411.193	7692.48
411.413	7735.48
411.633	7771.22
411.853	7810.84
412.073	7849.06
412.292	7885.84
412.512	7923.28
412.732	7964.6
412.952	8002.88
413.171	8043.15
413.391	8086.68
413.611	8129.95
413.831	8166.93
414.05	8209.89
414.27	8254.71
414.489	8297.58
414.709	8343.86
414.929	8389.08
415.148	8429.91
415.368	8470.8
415.587	8515.22
415.807	8554.44
416.026	8594.82
416.246	8638.37
416.465	8680.17
416.685	8719.2
416.904	8766.49
417.124	8807.06
417.343	8849.75
417.563	8898.28
417.782	8949.15
418.002	8990.31
418.221	9032.66
418.44	9070.08
418.66	9117.44
418.879	9162.73
419.098	9209.66
419.318	9249.06
419.537	9298.35
419.756	9339.04
419.976	9379
420.195	9419.11
420.414	9463.28
420.633	9504.06
420.853	9554.38
421.072	9594.35
421.291	9640.29
421.51	9682.06
421.729	9728.42
421.948	9768.24
422.168	9813.37
422.387	9854.06
422.606	9898.86
422.825	9941.69
423.044	9991.93
423.263	10038.4
423.482	10083.44
423.701	10127.51
423.92	10170.02
424.139	10214.11
424.358	10257.69
424.577	10306.51
424.796	10359.06
425.015	10405.64
425.234	10453.22
425.453	10498.71
425.672	10542.2
425.891	10590.48
426.11	10631.6
426.328	10674.78
426.547	10721.48
426.766	10770.18
426.985	10822.84
427.204	10860.95
427.422	10908.51
427.641	10958.33
427.86	11005.86
428.079	11050.84
428.297	11096.28
428.516	11146.6
428.735	11199.53
428.954	11243.31
429.172	11292
429.391	11334.2
429.61	11384.2
429.828	11431.6
430.047	11470.55
430.265	11511.58
430.484	11558.73
430.703	11609.31
430.921	11653.6
431.14	11701.98
431.358	11756.02
431.577	11799.33
431.795	11840.98
432.014	11894.09
432.232	11940.15
432.451	11993.84
432.669	12048.6
432.887	12104.95
433.106	12149.31
433.324	12199.89
433.543	12243.44
433.761	12290.24
433.979	12343.66
434.198	12397.24
434.416	12440.42
434.634	12484.17
434.853	12530.95
435.071	12575.64
435.289	12615.09
435.507	12663.35
435.726	12708.82
435.944	12762.84
436.162	12803.29
436.38	12844.51
436.598	12891.24
436.817	12933.26
437.035	12984.15
437.253	13029.73
437.471	13078.88
437.689	13128.49
437.907	13170.22
438.125	13220.98
438.343	13266.02
438.561	13318.75
438.78	13369.97
438.998	13415.13
439.216	13468.42
439.434	13513.53
439.652	13559.75
439.869	13602.17
440.087	13650.04
440.305	13704.69
440.523	13750.15
440.741	13802.22
440.959	13851.18
441.177	13900.24
441.395	13945.78
441.613	13988.37
441.831	14037.88
442.048	14081.97
442.266	14132.89
442.484	14177.04
442.702	14225.4
442.919	14273.62
443.137	14317.26
443.355	14365.98
443.573	14411.68
443.79	14464.4
444.008	14515.48
444.226	14562.26
444.443	14615.97
444.661	14665.38
444.879	14721.11
445.096	14772.06
445.314	14817.48
445.532	14863.38
445.749	14908.53
445.967	14957.77
446.184	15000.86
446.402	15045.15
446.619	15093.48
446.837	15136.02
447.054	15181.48
447.272	15221.15
447.489	15257.71
447.707	15308.77
447.924	15354.68
448.141	15408.04
448.359	15451.55
448.576	15505.13
448.794	15560.86
449.011	15609.08
449.228	15664.26
449.446	15719.11
449.663	15772.82
449.88	15832
450.098	15879.57
450.315	15927.4
450.532	15975.84
450.749	16028.11
450.967	16078.86
451.184	16130.73
451.401	16177.28
451.618	16225.88
451.835	16269.62
452.052	16307.18
452.27	16349.22
452.487	16398.35
452.704	16449.78
452.921	16491.62
453.138	16537.78
453.355	16577.91
453.572	16620.73
453.789	16673.66
454.006	16716.97
454.223	16765.75
454.44	16814.24
454.657	16855.09
454.874	16895.75
455.091	16941.49
455.308	16984.46
