Data from test1_MAYP1115451__49__10-17-25-412.txt Node

Date: Wed Jun 12 10:17:25 MDT 2024
User: Modes Lab
Spectrometer: MAYP111545
Trigger mode: 0
Integration Time (sec): 8.000000E-3
Scans to average: 5
Electric dark correction enabled: true
Nonlinearity correction enabled: false
Boxcar width: 5
XAxis mode: Wavelengths
Number of Pixels in Spectrum: 2068
>>>>>Begin Spectral Data<<<<<
165.214	165.2
165.449	165.14
165.683	174.57
165.918	183.56
166.152	189.64
166.387	194.2
166.621	127.09
166.856	165.45
167.09	184.51
167.325	207.47
167.559	224.13
167.794	237.93
168.028	245.4
168.263	246.11
168.497	245.69
168.732	247.29
168.966	248.04
169.2	247.76
169.435	249.27
169.669	250.38
169.903	252.44
170.138	253.65
170.372	254.47
170.606	255.78
170.841	257.38
171.075	258.73
171.309	259.87
171.544	262.11
171.778	264.56
172.012	266.51
172.246	268.27
172.48	270.29
172.715	272.45
172.949	275.4
173.183	278.13
173.417	279.31
173.651	280.45
173.885	281.04
174.119	281.96
174.354	282.95
174.588	283.04
174.822	282.67
175.056	282.6
175.29	282.42
175.524	281.09
175.758	279.73
175.992	280.38
176.226	281.56
176.46	282.85
176.694	283.87
176.928	283.93
177.162	285.05
177.396	286.53
177.63	287.27
177.864	288
178.097	290.04
178.331	291.93
178.565	292.64
178.799	292.71
179.033	292.05
179.267	291.93
179.5	292.67
179.734	293.02
179.968	294.05
180.202	294.55
180.436	296.09
180.669	296.78
180.903	297.82
181.137	298.64
181.371	300.05
181.604	301.27
181.838	302.58
182.072	303.98
182.305	305.25
182.539	306.07
182.772	307.75
183.006	308.56
183.24	309.13
183.473	311.49
183.707	313.45
183.94	314.25
184.174	315.53
184.408	316.73
184.641	318.24
184.875	319.16
185.108	319.93
185.342	320.71
185.575	322.27
185.808	324.2
186.042	323.85
186.275	323.6
186.509	324.78
186.742	327.11
186.976	328.67
187.209	329.89
187.442	331.53
187.676	332.89
187.909	334.75
188.142	335.53
188.376	336.69
188.609	337.65
188.842	340.58
189.076	341.91
189.309	344.13
189.542	345.51
189.775	346.51
190.009	348.96
190.242	352.15
190.475	353.67
190.708	355.31
190.941	357.27
191.174	359.6
191.408	360.44
191.641	362.07
191.874	363.31
192.107	365.73
192.34	367.73
192.573	368.55
192.806	368.73
193.039	370.2
193.272	371.22
193.505	373.07
193.738	374.65
193.971	377.85
194.204	380.04
194.437	380.73
194.67	382.38
194.903	384.05
195.136	385.71
195.369	387.38
195.602	388.91
195.835	392.09
196.068	393.64
196.301	395.2
196.533	397.11
196.766	398.65
196.999	400.16
197.232	402.33
197.465	404.4
197.698	407.15
197.93	409.75
198.163	411.65
198.396	413.78
198.629	416.07
198.861	418.64
199.094	419.71
199.327	422.15
199.559	423.71
199.792	425.38
200.025	427.13
200.257	428.45
200.49	431.27
200.723	434.96
200.955	437.09
201.188	438.55
201.42	441.29
201.653	443.33
201.886	446.87
202.118	450.47
202.351	452.15
202.583	455.45
202.816	458.78
203.048	459.85
203.281	461.4
203.513	462.49
203.745	465.31
203.978	466.64
204.21	468.64
204.443	468.84
204.675	470.69
204.907	473.55
205.14	475.07
205.372	477.27
205.605	479.91
205.837	482.09
206.069	485.25
206.302	487.67
206.534	489.89
206.766	491.15
206.998	493.96
207.231	497.15
207.463	499.18
207.695	502.76
207.927	504.04
208.159	506.27
208.392	506.96
208.624	508.84
208.856	510.82
209.088	513.87
209.32	516.6
209.552	519.44
209.784	520.98
210.017	522.31
210.249	523.05
210.481	525.31
210.713	526.73
210.945	530.13
211.177	530.96
211.409	533.07
211.641	535.07
211.873	537.75
212.105	537.64
212.337	539.73
212.569	542.75
212.801	545.91
213.033	547.82
213.264	550.24
213.496	551.09
213.728	554.15
213.96	556.18
214.192	557.02
214.424	559.38
214.656	563.24
214.887	566.09
215.119	567.71
215.351	568.05
215.583	570.56
215.815	573.67
216.046	575
216.278	576.6
216.51	577.25
216.741	579.13
216.973	579.33
217.205	580.6
217.436	580.51
217.668	582.67
217.9	584.65
218.131	585.05
218.363	585.62
218.595	587.76
218.826	588.89
219.058	591.33
219.289	592.53
219.521	593.4
219.752	595.56
219.984	596.24
220.215	596.47
220.447	596.13
220.678	597.91
220.91	598.91
221.141	600.98
221.373	601.65
221.604	602.25
221.836	603.95
222.067	605.93
222.298	605.18
222.53	606.4
222.761	607.8
222.993	609.98
223.224	610.44
223.455	610.91
223.686	610.73
223.918	611.84
224.149	612.35
224.38	612.62
224.612	613.71
224.843	613.84
225.074	615.45
225.305	615.42
225.536	615.67
225.768	616.58
225.999	617.85
226.23	619.24
226.461	619.89
226.692	621.71
226.923	621.89
227.155	623.4
227.386	625.82
227.617	625.56
227.848	625.24
228.079	626.89
228.31	626.78
228.541	625.98
228.772	626.27
229.003	625.53
229.234	624.85
229.465	624.93
229.696	623.04
229.927	621.67
230.158	621.93
230.389	622.38
230.62	621.53
230.85	621.27
231.081	621.8
231.312	620.85
231.543	621.4
231.774	619.73
232.005	619.89
232.236	619.73
232.466	619.47
232.697	619.49
232.928	619.89
233.159	619.78
233.389	620.75
233.62	620.36
233.851	621.05
234.082	621.53
234.312	622.11
234.543	621.16
234.774	622.22
235.004	623.31
235.235	623.65
235.466	623.78
235.696	623.31
235.927	621.73
236.157	622.02
236.388	621.38
236.618	620.18
236.849	620.96
237.08	621.56
237.31	621.56
237.541	620.67
237.771	619.09
238.002	618.78
238.232	617.96
238.463	617.98
238.693	618.13
238.923	618.25
239.154	619.27
239.384	618.93
239.615	619.18
239.845	617.4
240.075	616.96
240.306	617.02
240.536	616.33
240.766	617.35
240.997	616.84
241.227	616.13
241.457	615.75
241.687	613.73
241.918	613.51
242.148	612.15
242.378	613.11
242.608	613.71
242.839	613.47
243.069	612.56
243.299	611.93
243.529	612.85
243.759	612.75
243.989	612.35
244.22	613.09
244.45	612.29
244.68	612.13
244.91	611.87
245.14	610.73
245.37	610.8
245.6	610.87
245.83	610.73
246.06	609.56
246.29	609
246.52	608.16
246.75	607.91
246.98	607.16
247.21	606.31
247.44	605.16
247.67	603.69
247.9	602.6
248.13	602.04
248.359	600.36
248.589	599.44
248.819	597.87
249.049	598.4
249.279	598.09
249.509	597.53
249.738	597.49
249.968	596.65
250.198	596.89
250.428	596.58
250.657	595.38
250.887	594.96
251.117	595.73
251.347	595.18
251.576	593.69
251.806	592.29
252.036	593.2
252.265	592.44
252.495	592.07
252.725	591.33
252.954	591.8
253.184	590.95
253.413	590.42
253.643	589.29
253.873	587.8
254.102	586.36
254.332	586.8
254.561	584.69
254.791	584.02
255.02	583.84
255.25	583.49
255.479	581.56
255.708	582.62
255.938	581.35
256.167	579.8
256.397	578.96
256.626	578.51
256.856	577.31
257.085	577.05
257.314	576.47
257.544	576
257.773	575.47
258.002	575.38
258.232	574.56
258.461	574.6
258.69	573.58
258.919	574.18
259.149	573.53
259.378	572.87
259.607	572.02
259.836	572.09
260.065	570.65
260.295	569.64
260.524	568.2
260.753	567.42
260.982	566.05
261.211	566.07
261.44	565.49
261.669	566.44
261.899	564.73
262.128	562.55
262.357	561.58
262.586	561.31
262.815	561.44
263.044	560.8
263.273	562.56
263.502	563.18
263.731	561.36
263.96	560.82
264.189	559.24
264.418	559.89
264.646	560.71
264.875	559.44
265.104	558.62
265.333	557.53
265.562	556.53
265.791	551.8
266.02	550.18
266.249	549.91
266.477	547.82
266.706	546.02
266.935	545.04
267.164	544.31
267.393	542.58
267.621	542.82
267.85	542.05
268.079	541.16
268.307	540.18
268.536	539.33
268.765	539.18
268.993	540.18
269.222	539.89
269.451	539.18
269.679	538.29
269.908	538.02
270.137	536.29
270.365	535.76
270.594	537.73
270.822	538.89
271.051	539.8
271.279	541
271.508	539.78
271.736	541.58
271.965	542.04
272.193	543.31
272.422	545
272.65	544.89
272.879	544.11
273.107	542.87
273.336	542.15
273.564	541.36
273.792	539.8
274.021	540.07
274.249	536.67
274.477	536.2
274.706	534.2
274.934	532.25
275.162	530.49
275.391	528.87
275.619	527.16
275.847	527.07
276.075	525.49
276.304	523.78
276.532	522.09
276.76	523.09
276.988	521.69
277.216	520.91
277.445	521
277.673	520.67
277.901	521.69
278.129	520.93
278.357	519.96
278.585	518.89
278.813	518.33
279.041	518.02
279.269	516.75
279.497	516.22
279.725	515.13
279.954	513.51
280.182	513.49
280.41	512.65
280.637	512.29
280.865	511
281.093	510.8
281.321	510.87
281.549	510.62
281.777	511.25
282.005	510.18
282.233	510.93
282.461	510.78
282.689	510.71
282.916	511.15
283.144	511.4
283.372	510.95
283.6	510.75
283.828	509.84
284.055	508.58
284.283	506.36
284.511	506.16
284.739	504.42
284.966	503.65
285.194	502.35
285.422	501.35
285.649	500.78
285.877	499.87
286.105	499.62
286.332	499.02
286.56	500.07
286.788	500.91
287.015	500.84
287.243	500.91
287.47	500.6
287.698	498.87
287.925	497.85
288.153	497.33
288.381	498.25
288.608	497.98
288.836	498.16
289.063	495.65
289.29	494.15
289.518	494.11
289.745	493.07
289.973	492.6
290.2	493.35
290.428	492.85
290.655	491.35
290.882	490.02
291.11	488.64
291.337	488.29
291.564	488.67
291.792	487.75
292.019	486.55
292.246	485.87
292.473	485.62
292.701	485.29
292.928	482.87
293.155	482.44
293.382	482.33
293.61	481.53
293.837	479.69
294.064	479.4
294.291	478.82
294.518	477.44
294.745	476.44
294.972	474.67
295.2	473.71
295.427	474.75
295.654	474.25
295.881	473.27
296.108	473.93
296.335	474.51
296.562	473.69
296.789	473.69
297.016	474.18
297.243	474.4
297.47	475
297.697	474.84
297.924	474.8
298.151	473.98
298.378	474.29
298.604	473.65
298.831	471.75
299.058	472.51
299.285	471.71
299.512	470.65
299.739	470.73
299.966	469.69
300.192	469.65
300.419	469.36
300.646	469.2
300.873	468.31
301.099	467.16
301.326	466.71
301.553	465
301.78	465.53
302.006	465.56
302.233	465.22
302.46	466.07
302.686	464.71
302.913	464.09
303.14	463.15
303.366	462.76
303.593	461.98
303.819	463.02
304.046	462.56
304.272	461.44
304.499	461.09
304.725	461.24
304.952	460.42
305.179	460.24
305.405	459.76
305.631	460.29
305.858	460.38
306.084	460.93
306.311	460.38
306.537	460.49
306.764	461.05
306.99	461.2
307.216	460.51
307.443	460.24
307.669	460.64
307.895	460.05
308.122	459.51
308.348	458.55
308.574	457.38
308.801	457.51
309.027	456.93
309.253	456.38
309.479	454.95
309.706	454.42
309.932	452.8
310.158	452.73
310.384	452.75
310.61	453.35
310.837	452.44
311.063	453.56
311.289	452.47
311.515	453.04
311.741	453.04
311.967	453.42
312.193	452.58
312.419	453.73
312.645	453.75
312.871	453.05
313.097	452.78
313.323	454.31
313.549	454.45
313.775	455.49
314.001	455.02
314.227	455.55
314.453	455.56
314.679	456.31
314.905	456.13
315.131	455.85
315.357	457.11
315.583	456.51
315.809	455.95
316.034	455.29
316.26	454.73
316.486	455.45
316.712	455.35
316.938	456.09
317.163	456.04
317.389	456.58
317.615	457.78
317.841	457.4
318.066	459.07
318.292	460.07
318.518	460.76
318.743	461.15
318.969	462.05
319.195	464.31
319.42	464.38
319.646	466.13
319.872	467.36
320.097	467.07
320.323	468.91
320.548	468.65
320.774	470.27
320.999	471.25
321.225	473.76
321.45	473.84
321.676	472.47
321.901	474.07
322.127	475.56
322.352	476.11
322.578	477.95
322.803	479.65
323.029	481.82
323.254	482.65
323.479	484.84
323.705	485.49
323.93	487.89
324.155	489.38
324.381	491.07
324.606	492.31
324.831	495.22
325.057	495.85
325.282	497.44
325.507	497.75
325.732	500.95
325.958	503.25
326.183	505.55
326.408	507.44
326.633	511.05
326.858	513.56
327.084	516.11
327.309	518.31
327.534	522.45
327.759	526.11
327.984	530.65
328.209	531.91
328.434	535.31
328.659	539.33
328.884	542.98
329.109	545.76
329.334	549.33
329.559	552.98
329.784	555.67
330.009	558.87
330.234	560.38
330.459	564.49
330.684	568.24
330.909	571.47
331.134	574.78
331.359	578.53
331.584	583.8
331.809	586.44
332.034	590.6
332.259	595.4
332.483	599.22
332.708	604.71
332.933	609.89
333.158	613.55
333.383	617.69
333.607	622.02
333.832	626.53
334.057	629.73
334.282	635.89
334.506	640.98
334.731	644.85
334.956	650.49
335.18	656.18
335.405	660.04
335.63	666.85
335.854	672.85
336.079	677.49
336.303	681.85
336.528	687.91
336.753	693.04
336.977	698.18
337.202	705.69
337.426	710.96
337.651	717.07
337.875	723.42
338.1	730.93
338.324	737.47
338.549	746.51
338.773	754.33
338.997	761.65
339.222	769
339.446	775.93
339.671	783.49
339.895	792.2
340.119	799.05
340.344	807.42
340.568	813.56
340.792	820.67
341.017	827.24
341.241	835.73
341.465	842.85
341.689	851.27
341.914	860.15
342.138	867.62
342.362	875.35
342.586	883.33
342.811	890.33
343.035	900.13
343.259	907.96
343.483	916.85
343.707	924.58
343.931	935.42
344.155	943.73
344.38	953.45
344.604	961.95
344.828	972.38
345.052	981.31
345.276	991.47
345.5	998.45
345.724	1008.85
345.948	1018.56
346.172	1029.55
346.396	1038.56
346.62	1050
346.844	1059.76
347.068	1070.02
347.292	1078.8
347.515	1090.04
347.739	1101.53
347.963	1112.36
348.187	1123.58
348.411	1134.04
348.635	1143.91
348.859	1155.65
349.082	1164.58
349.306	1174.15
349.53	1185.85
349.754	1196.38
349.977	1205.18
350.201	1214.31
350.425	1225.8
350.649	1235.89
350.872	1245.76
351.096	1257
351.32	1265.73
351.543	1277.45
351.767	1288.56
351.99	1299.51
352.214	1313.02
352.438	1324.87
352.661	1336.69
352.885	1348.36
353.108	1361.51
353.332	1372.85
353.555	1384.15
353.779	1396.16
354.002	1407.31
354.226	1419.95
354.449	1431.18
354.673	1441.22
354.896	1453.96
355.12	1467.31
355.343	1478.89
355.566	1489.64
355.79	1504.09
356.013	1515.49
356.237	1526.55
356.46	1539.8
356.683	1551.38
356.907	1564.65
357.13	1577.8
357.353	1589.29
357.576	1601.07
357.8	1613.65
358.023	1624.98
358.246	1636.38
358.469	1650.15
358.693	1664.69
358.916	1676.95
359.139	1691.13
359.362	1702.64
359.585	1714.36
359.808	1726.76
360.031	1737.95
360.255	1751.56
360.478	1765.85
360.701	1778.84
360.924	1792.36
361.147	1803.47
361.37	1815.56
361.593	1830.07
361.816	1844.93
362.039	1858.62
362.262	1873.91
362.485	1888.58
362.708	1902.49
362.931	1915.44
363.154	1926.82
363.377	1939.64
363.599	1953.75
363.822	1968
364.045	1979.09
364.268	1992.73
364.491	2007.67
364.714	2023.64
364.936	2036.65
365.159	2051.4
365.382	2066.69
365.605	2082.33
365.828	2099.69
366.05	2115.76
366.273	2131.91
366.496	2148.53
366.718	2161.2
366.941	2175.33
367.164	2189.93
367.386	2207.62
367.609	2221.71
367.832	2238.65
368.054	2255.78
368.277	2270.16
368.5	2286.36
368.722	2301.04
368.945	2317.84
369.167	2337.49
369.39	2355.31
369.612	2370.15
369.835	2387.25
370.057	2406.78
370.28	2421.91
370.502	2437.56
370.725	2454.13
370.947	2471.84
371.169	2489.6
371.392	2506.05
371.614	2521.42
371.837	2537.96
372.059	2554.07
372.281	2569.89
372.504	2584.73
372.726	2602.87
372.948	2618.49
373.171	2635.8
373.393	2651.76
373.615	2671.42
373.837	2688.2
374.06	2705.62
374.282	2723.25
374.504	2741.45
374.726	2760.13
374.948	2778.15
375.17	2795.51
375.393	2817.69
375.615	2833.15
375.837	2850.05
376.059	2868.35
376.281	2886.98
376.503	2908.67
376.725	2927.27
376.947	2947.91
377.169	2967.33
377.391	2987.73
377.613	3010.16
377.835	3030.35
378.057	3052.31
378.279	3076.15
378.501	3096.53
378.723	3117.95
378.945	3135.69
379.167	3157.11
379.389	3177.69
379.611	3200.84
379.833	3223.27
380.054	3243.6
380.276	3263.69
380.498	3286.75
380.72	3310.53
380.942	3332.04
381.163	3355.6
381.385	3382.44
381.607	3409.05
381.829	3434.29
382.05	3460
382.272	3484.2
382.494	3511.2
382.716	3538.91
382.937	3566.93
383.159	3592.13
383.381	3620
383.602	3644.38
383.824	3668.56
384.045	3696.25
384.267	3723.31
384.488	3746.91
384.71	3774.75
384.932	3798.75
385.153	3822.07
385.375	3847.87
385.596	3872.29
385.818	3897.11
386.039	3925.47
386.261	3953.02
386.482	3979.31
386.703	4006.33
386.925	4035.87
387.146	4061.33
387.368	4088.98
387.589	4121.05
387.81	4148.09
388.032	4178.07
388.253	4207.09
388.474	4237.82
388.696	4264.76
388.917	4291.8
389.138	4320.96
389.359	4346.67
389.581	4377.47
389.802	4405.96
390.023	4434.95
390.244	4465.09
390.465	4495.2
390.687	4528.13
390.908	4554.84
391.129	4585.91
391.35	4612.87
391.571	4642.78
391.792	4672.55
392.013	4701.71
392.234	4734.05
392.455	4765.05
392.677	4799.82
392.898	4833.47
393.119	4863.13
393.34	4894.53
393.561	4928.87
393.782	4964.42
394.003	4999.91
394.223	5036.02
394.444	5071.84
394.665	5107.91
394.886	5137.75
395.107	5166.75
395.328	5197.35
395.549	5230.69
395.77	5265.16
395.99	5301.13
396.211	5334.53
396.432	5366.91
396.653	5399.64
396.874	5429.07
397.094	5459.87
397.315	5494.4
397.536	5530.82
397.757	5565.36
397.977	5603.24
398.198	5638.05
398.419	5664.75
398.639	5701.33
398.86	5732.55
399.081	5766.49
399.301	5800.89
399.522	5834.8
399.742	5869.31
399.963	5904.07
400.184	5934.42
400.404	5959.89
400.625	5990.16
400.845	6026.98
401.066	6055.56
401.286	6089.98
401.507	6123.11
401.727	6154.24
401.948	6190.6
402.168	6226
402.388	6258.65
402.609	6293.22
402.829	6329.84
403.05	6367.2
403.27	6402.29
403.49	6436.29
403.711	6473.15
403.931	6509.75
404.151	6546.49
404.372	6575.25
404.592	6609.87
404.812	6640.04
405.032	6673.84
405.253	6707.55
405.473	6742.31
405.693	6775.85
405.913	6814.07
406.133	6845.44
406.353	6881.67
406.574	6918.31
406.794	6952.84
407.014	6988.02
407.234	7025.07
407.454	7064.13
407.674	7102.51
407.894	7139.53
408.114	7172
408.334	7205.58
408.554	7240.6
408.774	7272.55
408.994	7310.91
409.214	7351.15
409.434	7384.89
409.654	7423.44
409.874	7460.84
410.094	7494.35
410.314	7531.29
410.534	7570.93
410.754	7611.47
410.974	7649.36
411.193	7688.16
411.413	7722.55
411.633	7761.16
411.853	7800.55
412.073	7837.22
412.292	7873.91
412.512	7918.56
412.732	7955.31
412.952	7995.16
413.171	8032.89
413.391	8077.04
413.611	8116.65
413.831	8161.31
414.05	8202.85
414.27	8247.33
414.489	8290.42
414.709	8335.13
414.929	8377.44
415.148	8420.76
415.368	8465.53
415.587	8510.62
415.807	8551.76
416.026	8592.84
416.246	8634.25
416.465	8680.58
416.685	8722.93
416.904	8769.11
417.124	8810.62
417.343	8851.07
417.563	8900.33
417.782	8946.91
418.002	8987.4
418.221	9032.93
418.44	9079.31
418.66	9122.25
418.879	9161.56
419.098	9208.53
419.318	9251.33
419.537	9297.2
419.756	9345.16
419.976	9383.22
420.195	9424.44
420.414	9469.71
420.633	9509.73
420.853	9554.49
421.072	9602.42
421.291	9646.36
421.51	9689.53
421.729	9731.13
421.948	9772.09
422.168	9811.82
422.387	9860.16
422.606	9897.16
422.825	9946.8
423.044	9991.55
423.263	10037.98
423.482	10079.84
423.701	10121.8
423.92	10164.51
424.139	10213.64
424.358	10258.47
424.577	10304.95
424.796	10349.22
425.015	10398.55
425.234	10435.89
425.453	10485.76
425.672	10525.93
425.891	10574.27
426.11	10626.22
426.328	10676.96
426.547	10717.45
426.766	10768.42
426.985	10817.87
427.204	10859.65
427.422	10913.53
427.641	10963.78
427.86	11008.65
428.079	11057.71
428.297	11101.24
428.516	11148.31
428.735	11192.33
428.954	11244.89
429.172	11293.15
429.391	11338.4
429.61	11392.02
429.828	11433.67
430.047	11481.47
430.265	11533.49
430.484	11583.51
430.703	11630.91
430.921	11677.24
431.14	11718.51
431.358	11765.29
431.577	11811.62
431.795	11857.96
432.014	11903.85
432.232	11955.6
432.451	12005.8
432.669	12049.6
432.887	12093.07
433.106	12143.45
433.324	12188.42
433.543	12246.76
433.761	12293.24
433.979	12341.11
434.198	12388.95
434.416	12436.25
434.634	12478.38
434.853	12520.8
435.071	12574.42
435.289	12628.6
435.507	12675.62
435.726	12726.05
435.944	12767.65
436.162	12811.11
436.38	12859.93
436.598	12906.13
436.817	12946.4
437.035	13000.11
437.253	13052.04
437.471	13095.98
437.689	13135.07
437.907	13182.45
438.125	13222.64
438.343	13267.85
438.561	13318.07
438.78	13359.29
438.998	13408.16
439.216	13454.84
439.434	13494.73
439.652	13540.07
439.869	13587.6
440.087	13642.25
440.305	13690.18
440.523	13744.2
440.741	13791.82
440.959	13841.38
441.177	13892.44
441.395	13938.38
441.613	13988.31
441.831	14038.91
442.048	14087.82
442.266	14134.15
442.484	14181.45
442.702	14226.91
442.919	14276.42
443.137	14328.85
443.355	14373.93
443.573	14420.22
443.79	14469.35
444.008	14525.13
444.226	14575.31
444.443	14624.69
444.661	14666.44
444.879	14718.75
445.096	14768.45
445.314	14818.75
445.532	14866.31
445.749	14916.95
445.967	14968.35
446.184	15013.04
446.402	15049.84
446.619	15096.98
446.837	15137.15
447.054	15183.89
447.272	15224.51
447.489	15267.35
447.707	15307.18
447.924	15350.69
448.141	15394.51
448.359	15440.25
448.576	15490.55
448.794	15543.47
449.011	15593.89
449.228	15647.24
449.446	15693.67
449.663	15743.55
449.88	15796.51
450.098	15851.71
450.315	15904.56
450.532	15954.11
450.749	15998.84
450.967	16047.07
451.184	16094.25
451.401	16143.35
451.618	16188.05
451.835	16237.44
452.052	16281.73
452.27	16328.2
452.487	16365.82
452.704	16410.53
452.921	16467.65
453.138	16512.36
453.355	16562.85
453.572	16611.85
453.789	16659.42
454.006	16710.84
454.223	16763.64
454.44	16816.42
454.657	16866.29
454.874	16925.91
