Data from test1_MAYP1115451__47__10-17-24-854.txt Node

Date: Wed Jun 12 10:17:24 MDT 2024
User: Modes Lab
Spectrometer: MAYP111545
Trigger mode: 0
Integration Time (sec): 8.000000E-3
Scans to average: 5
Electric dark correction enabled: true
Nonlinearity correction enabled: false
Boxcar width: 5
XAxis mode: Wavelengths
Number of Pixels in Spectrum: 2068
>>>>>Begin Spectral Data<<<<<
165.214	163.37
165.449	162.53
165.683	171.68
165.918	180.29
166.152	186.55
166.387	192.04
166.621	123.61
166.856	162.15
167.09	180.5
167.325	203.59
167.559	219.32
167.794	233.5
168.028	240.95
168.263	242.21
168.497	241.19
168.732	242.46
168.966	243.66
169.2	245.12
169.435	246.44
169.669	247.41
169.903	249.13
170.138	250.93
170.372	252.42
170.606	253.92
170.841	255.02
171.075	257.68
171.309	258.95
171.544	259.21
171.778	261.3
172.012	262.61
172.246	264.82
172.48	266.62
172.715	268.7
172.949	271.64
173.183	273.82
173.417	275.32
173.651	277.06
173.885	278.73
174.119	280.53
174.354	280.59
174.588	281.35
174.822	281.35
175.056	280.42
175.29	280.3
175.524	278.55
175.758	279.12
175.992	279.32
176.226	279.32
176.46	279.15
176.694	278.66
176.928	279.61
177.162	279.97
177.396	280.81
177.63	282.66
177.864	283.13
178.097	283.82
178.331	284.26
178.565	285.61
178.799	286.01
179.033	286.44
179.267	287.48
179.5	287.59
179.734	287.97
179.968	289.72
180.202	290.21
180.436	291.08
180.669	292.37
180.903	293.21
181.137	293.59
181.371	295.04
181.604	295.53
181.838	296.66
182.072	298.39
182.305	300.99
182.539	301.73
182.772	303.02
183.006	304.24
183.24	305.73
183.473	309.12
183.707	310.77
183.94	311.3
184.174	313.02
184.408	314.88
184.641	316.02
184.875	316.15
185.108	317.44
185.342	318.73
185.575	320.57
185.808	321.99
186.042	320.81
186.275	321.15
186.509	322.62
186.742	324.08
186.976	325.59
187.209	327.13
187.442	328.06
187.676	328.84
187.909	329.44
188.142	330.88
188.376	331.62
188.609	332.79
188.842	334.32
189.076	335.08
189.309	335.79
189.542	336.22
189.775	337.1
190.009	340.61
190.242	342.75
190.475	344.95
190.708	346.52
190.941	348.99
191.174	351.37
191.408	352.28
191.641	354.68
191.874	357.17
192.107	358.57
192.34	361.13
192.573	361.86
192.806	363.95
193.039	365.52
193.272	366.53
193.505	367.04
193.738	368.53
193.971	372.35
194.204	373.26
194.437	373.99
194.67	376.52
194.903	377.84
195.136	379.19
195.369	380.86
195.602	383.12
195.835	385.86
196.068	389.19
196.301	391.19
196.533	391.84
196.766	394.1
196.999	397.3
197.232	399.48
197.465	401.32
197.698	404.59
197.93	406.77
198.163	408.21
198.396	410.15
198.629	411.62
198.861	413.22
199.094	415.88
199.327	418.82
199.559	419.9
199.792	422.32
200.025	425.33
200.257	426.79
200.49	427.97
200.723	430.84
200.955	432.72
201.188	434.9
201.42	437.77
201.653	440.86
201.886	442.73
202.118	445.41
202.351	446.72
202.583	447.97
202.816	449.95
203.048	452.95
203.281	454.39
203.513	457.32
203.745	460.79
203.978	463.44
204.21	464.88
204.443	468.19
204.675	470.35
204.907	473.32
205.14	476.77
205.372	480.02
205.605	482.79
205.837	485.82
206.069	487.32
206.302	488.7
206.534	489.86
206.766	491.41
206.998	491.84
207.231	494.24
207.463	495.62
207.695	497.17
207.927	497.62
208.159	498.93
208.392	499.37
208.624	502.7
208.856	503.82
209.088	506.01
209.32	508.13
209.552	510.84
209.784	513.37
210.017	516.26
210.249	518.02
210.481	521.13
210.713	522.81
210.945	526.41
211.177	526.93
211.409	528.86
211.641	531.35
211.873	533.62
212.105	536.3
212.337	537.68
212.569	539.17
212.801	541.06
213.033	542.93
213.264	545.55
213.496	546.64
213.728	548.97
213.96	551.5
214.192	552.99
214.424	553.93
214.656	555.64
214.887	557.9
215.119	560.44
215.351	563.02
215.583	563.79
215.815	565.72
216.046	567.52
216.278	569.7
216.51	571.61
216.741	573.13
216.973	574.93
217.205	575.24
217.436	576.26
217.668	578.33
217.9	579.04
218.131	579.93
218.363	580.46
218.595	583.68
218.826	585.02
219.058	586.15
219.289	586.77
219.521	588.08
219.752	590.79
219.984	591.61
220.215	591.15
220.447	591.77
220.678	594.01
220.91	596.35
221.141	595.02
221.373	595.21
221.604	596.06
221.836	597.44
222.067	599.64
222.298	600.48
222.53	602.44
222.761	603.92
222.993	605.75
223.224	607.46
223.455	606.82
223.686	608.15
223.918	610.1
224.149	611.37
224.38	612.52
224.612	612.99
224.843	612.92
225.074	613.21
225.305	613.53
225.536	612.92
225.768	612.19
225.999	613.81
226.23	615.32
226.461	614.61
226.692	614.04
226.923	615.35
227.155	617.21
227.386	617.35
227.617	617.9
227.848	618.86
228.079	620.97
228.31	621.81
228.541	622.19
228.772	622.64
229.003	622.95
229.234	624.39
229.465	623.22
229.696	621.75
229.927	621.59
230.158	621.9
230.389	621.17
230.62	622.13
230.85	621.55
231.081	620.93
231.312	620.64
231.543	622.44
231.774	621.93
232.005	622.82
232.236	622.99
232.466	623.79
232.697	623.81
232.928	624.52
233.159	622.01
233.389	623.57
233.62	623.21
233.851	622.59
234.082	620.46
234.312	621.39
234.543	620.64
234.774	620.44
235.004	620.15
235.235	619.86
235.466	620.3
235.696	621.15
235.927	619.55
236.157	619.12
236.388	619.68
236.618	621.21
236.849	620.84
237.08	621.06
237.31	620.88
237.541	620.24
237.771	619.02
238.002	618.66
238.232	618.24
238.463	618.08
238.693	618.7
238.923	618.92
239.154	616.77
239.384	614.79
239.615	614.81
239.845	614.06
240.075	614.9
240.306	614.12
240.536	612.88
240.766	612.62
240.997	612.08
241.227	613.13
241.457	610.59
241.687	610.97
241.918	612.15
242.148	610.53
242.378	610.59
242.608	609.13
242.839	610.81
243.069	609.26
243.299	609.24
243.529	611.41
243.759	607.06
243.989	607.82
244.22	607.04
244.45	605.48
244.68	604.19
244.91	603.52
245.14	602.97
245.37	600.42
245.6	601.86
245.83	600.41
246.06	597.79
246.29	599.04
246.52	598.04
246.75	598.77
246.98	598.28
247.21	599.79
247.44	598.99
247.67	598.7
247.9	598.86
248.13	597.73
248.359	596.64
248.589	595.5
248.819	595.48
249.049	594.68
249.279	592.77
249.509	591.66
249.738	591.26
249.968	591.19
250.198	591.1
250.428	590.88
250.657	590.59
250.887	590.97
251.117	590.13
251.347	589.72
251.576	589.84
251.806	589.86
252.036	590.15
252.265	589.3
252.495	587.52
252.725	587.57
252.954	586.84
253.184	585.93
253.413	585.04
253.643	585.42
253.873	584.79
254.102	584.73
254.332	584.1
254.561	584.04
254.791	582.7
255.02	584.17
255.25	582.15
255.479	581.42
255.708	580.3
255.938	580.81
256.167	579.86
256.397	579.1
256.626	577.1
256.856	576.19
257.085	575.35
257.314	575.32
257.544	573.77
257.773	573.08
258.002	572.92
258.232	572.35
258.461	570.73
258.69	571.86
258.919	570.9
259.149	570.64
259.378	571.21
259.607	569.53
259.836	568.44
260.065	567.35
260.295	568.35
260.524	567.57
260.753	566.72
260.982	565.68
261.211	564.59
261.44	564.5
261.669	563.75
261.899	561.92
262.128	561.86
262.357	561.44
262.586	560.9
262.815	558.79
263.044	557.46
263.273	560.41
263.502	559.52
263.731	558.22
263.96	557.92
264.189	555.99
264.418	555.06
264.646	554.04
264.875	553.62
265.104	552.01
265.333	551.21
265.562	550.5
265.791	546.3
266.02	544.88
266.249	542.88
266.477	540.32
266.706	540.92
266.935	539.33
267.164	538.68
267.393	537.28
267.621	536.77
267.85	535.79
268.079	536.5
268.307	536.42
268.536	535.62
268.765	535.77
268.993	537.37
269.222	538.22
269.451	538.97
269.679	537.99
269.908	538.44
270.137	538.79
270.365	538.06
270.594	536.15
270.822	535.3
271.051	535.99
271.279	536.1
271.508	534.21
271.736	533.57
271.965	534.17
272.193	534.73
272.422	534.77
272.65	535.48
272.879	536.59
273.107	537.22
273.336	538.3
273.564	538.48
273.792	537.55
274.021	538.13
274.249	536.22
274.477	534.68
274.706	533.66
274.934	531.19
275.162	529.93
275.391	528.73
275.619	528.19
275.847	526.02
276.075	525.55
276.304	524.5
276.532	522.3
276.76	521.86
276.988	520.62
277.216	520.35
277.445	520.15
277.673	518.48
277.901	518.32
278.129	517.41
278.357	516.33
278.585	513.95
278.813	512.75
279.041	511.82
279.269	511.01
279.497	509.62
279.725	508.79
279.954	507.97
280.182	508.02
280.41	506.62
280.637	505.55
280.865	505.19
281.093	505.75
281.321	505.17
281.549	505.35
281.777	504.97
282.005	507.24
282.233	507.24
282.461	507.01
282.689	506.9
282.916	506.86
283.144	507.17
283.372	507.15
283.6	506.52
283.828	506.44
284.055	505.75
284.283	506.06
284.511	503.64
284.739	503.15
284.966	503.13
285.194	501.77
285.422	499.75
285.649	497.17
285.877	496.52
286.105	496.46
286.332	497.48
286.56	497.97
286.788	497.86
287.015	497.59
287.243	496.77
287.47	495.72
287.698	495.52
287.925	495.99
288.153	496.48
288.381	495.92
288.608	494.81
288.836	492.99
289.063	491.92
289.29	489.5
289.518	487.68
289.745	487.01
289.973	487.33
290.2	487.3
290.428	486.22
290.655	485.26
290.882	485.26
291.11	484.55
291.337	484.22
291.564	483.92
291.792	484.32
292.019	485.75
292.246	484.19
292.473	482.55
292.701	481.33
292.928	481.46
293.155	481.86
293.382	480.41
293.61	479.86
293.837	480.24
294.064	479.3
294.291	478.08
294.518	476.88
294.745	477.17
294.972	477.7
295.2	476.52
295.427	475.82
295.654	476.06
295.881	476.39
296.108	476.19
296.335	474.92
296.562	474.5
296.789	473.77
297.016	472.99
297.243	471.81
297.47	470.77
297.697	470.81
297.924	470.19
298.151	468.17
298.378	467.32
298.604	465.79
298.831	465.13
299.058	465.66
299.285	466.73
299.512	466.48
299.739	466.12
299.966	466.06
300.192	465.33
300.419	465.32
300.646	465.01
300.873	463.57
301.099	464.61
301.326	463.37
301.553	461.95
301.78	461.68
302.006	460.22
302.233	459.9
302.46	458.59
302.686	457.95
302.913	457.32
303.14	456.92
303.366	457.32
303.593	455.32
303.819	455.33
304.046	455.32
304.272	455.15
304.499	455.32
304.725	456.06
304.952	455.59
305.179	455.35
305.405	455.93
305.631	456.97
305.858	456.44
306.084	457.41
306.311	456.93
306.537	455.88
306.764	454.86
306.99	455.73
307.216	454.37
307.443	454.7
307.669	454.93
307.895	453.46
308.122	452.06
308.348	451.72
308.574	451.04
308.801	450.97
309.027	451.26
309.253	450.66
309.479	450.17
309.706	450.35
309.932	449.41
310.158	449.22
310.384	449.13
310.61	449.64
310.837	449.26
311.063	449.72
311.289	449.33
311.515	448.28
311.741	447.73
311.967	447.37
312.193	447.88
312.419	448.64
312.645	448.46
312.871	447.61
313.097	448.04
313.323	448.55
313.549	449.7
313.775	451.44
314.001	452.33
314.227	452.7
314.453	452.9
314.679	451.86
314.905	452.72
315.131	453.19
315.357	454.92
315.583	454.48
315.809	455.32
316.034	454.37
316.26	453.35
316.486	454.82
316.712	455.24
316.938	455.1
317.163	456.82
317.389	456.1
317.615	456.72
317.841	456.86
318.066	456.7
318.292	456.53
318.518	457.72
318.743	458.9
318.969	458.73
319.195	459.81
319.42	460.35
319.646	459.93
319.872	460.66
320.097	461.42
320.323	461.66
320.548	464.48
320.774	466.61
320.999	466.12
321.225	467.13
321.45	467.21
321.676	467.61
321.901	469.37
322.127	471.92
322.352	473.73
322.578	475.95
322.803	477.32
323.029	476.79
323.254	477.53
323.479	479.15
323.705	479.7
323.93	482.48
324.155	484.17
324.381	486.02
324.606	486.66
324.831	488.32
325.057	489.08
325.282	491.35
325.507	493.02
325.732	495.9
325.958	499.66
326.183	502.04
326.408	503.61
326.633	506.3
326.858	508.1
327.084	511.68
327.309	514.39
327.534	517.5
327.759	521.41
327.984	526.04
328.209	527.97
328.434	530.48
328.659	534.42
328.884	538.39
329.109	541.73
329.334	545.28
329.559	548.55
329.784	552.22
330.009	555.77
330.234	558.44
330.459	560.59
330.684	564.48
330.909	567.5
331.134	571.33
331.359	573.41
331.584	577.39
331.809	581.82
332.034	586.48
332.259	591.17
332.483	594.97
332.708	599.66
332.933	604.48
333.158	607.72
333.383	612.57
333.607	616.44
333.832	622.3
334.057	627.73
334.282	632.17
334.506	637.01
334.731	640.28
334.956	646.06
335.18	651.81
335.405	657.75
335.63	664.06
335.854	668.59
336.079	675.68
336.303	682.15
336.528	686.9
336.753	692.37
336.977	697.86
337.202	705.86
337.426	710.86
337.651	716.7
337.875	721.61
338.1	728.84
338.324	736.15
338.549	741.9
338.773	748.64
338.997	757.61
339.222	764.7
339.446	772.46
339.671	779.79
339.895	789.02
340.119	796.22
340.344	805.93
340.568	813.73
340.792	822.44
341.017	831.53
341.241	840.48
341.465	846.92
341.689	855.28
341.914	861.46
342.138	868.41
342.362	875.55
342.586	883.82
342.811	891.13
343.035	899.46
343.259	907.39
343.483	914.99
343.707	921.82
343.931	931.64
344.155	941.9
344.38	951.77
344.604	961.04
344.828	970.72
345.052	980.66
345.276	990.44
345.5	997.37
345.724	1006.82
345.948	1015.5
346.172	1026.21
346.396	1035.82
346.62	1046.93
346.844	1056.08
347.068	1066.19
347.292	1076.57
347.515	1084.39
347.739	1095.01
347.963	1106.7
348.187	1117.3
348.411	1128.95
348.635	1140.84
348.859	1150.99
349.082	1158.86
349.306	1171.13
349.53	1181.15
349.754	1190.52
349.977	1202.32
350.201	1212.24
350.425	1224.73
350.649	1235.1
350.872	1246.55
351.096	1256.01
351.32	1266.04
351.543	1278.59
351.767	1288.13
351.99	1299.92
352.214	1312.28
352.438	1325.44
352.661	1336.61
352.885	1347.01
353.108	1360.5
353.332	1370.7
353.555	1382.22
353.779	1394.44
354.002	1406.24
354.226	1417.97
354.449	1431.33
354.673	1442.73
354.896	1454.02
355.12	1466.59
355.343	1477.66
355.566	1488.61
355.79	1500.08
356.013	1512.39
356.237	1524.01
356.46	1534.84
356.683	1548.04
356.907	1558.32
357.13	1571.41
357.353	1582.02
357.576	1593.37
357.8	1607.7
358.023	1619.92
358.246	1631.95
358.469	1643.9
358.693	1655.95
358.916	1669.32
359.139	1683.21
359.362	1696.84
359.585	1709.13
359.808	1723.33
360.031	1736.86
360.255	1749.32
360.478	1762.53
360.701	1777.22
360.924	1790.48
361.147	1803.06
361.37	1815.42
361.593	1826.79
361.816	1839.73
362.039	1853.35
362.262	1866.15
362.485	1880.79
362.708	1894.68
362.931	1907.7
363.154	1921.57
363.377	1934.01
363.599	1950.66
363.822	1964.81
364.045	1978.66
364.268	1992.57
364.491	2005.33
364.714	2019.9
364.936	2032.59
365.159	2047.1
365.382	2061.81
365.605	2077.7
365.828	2096.08
366.05	2109.04
366.273	2125.04
366.496	2142.19
366.718	2159.44
366.941	2175.35
367.164	2190.21
367.386	2205.66
367.609	2219.62
367.832	2236.5
368.054	2250.01
368.277	2261.93
368.5	2278.61
368.722	2293.59
368.945	2306.9
369.167	2322.22
369.39	2338.81
369.612	2355.21
369.835	2373.66
370.057	2388.88
370.28	2403.19
370.502	2421.81
370.725	2439.46
370.947	2457.44
371.169	2474.59
371.392	2494.95
371.614	2511.66
371.837	2528.52
372.059	2546.61
372.281	2564.9
372.504	2582.33
372.726	2601.62
372.948	2614.93
373.171	2632.77
373.393	2650.99
373.615	2667.66
373.837	2682.95
374.06	2699.55
374.282	2718.3
374.504	2734.44
374.726	2751.13
374.948	2771.55
375.17	2789.01
375.393	2809.95
375.615	2828.73
375.837	2847.21
376.059	2867.12
376.281	2887.5
376.503	2907.88
376.725	2927.37
376.947	2948.5
377.169	2968.72
377.391	2987.48
377.613	3008.32
377.835	3031.61
378.057	3052.26
378.279	3071.35
378.501	3092.3
378.723	3112.93
378.945	3133.01
379.167	3155.22
379.389	3176.46
379.611	3197.68
379.833	3223.41
380.054	3243.75
380.276	3264.32
380.498	3288.32
380.72	3313.41
380.942	3334.86
381.163	3359.57
381.385	3382.57
381.607	3405.32
381.829	3433.12
382.05	3457.13
382.272	3476.88
382.494	3504.41
382.716	3530.44
382.937	3556.01
383.159	3583.04
383.381	3611.53
383.602	3636.15
383.824	3665.57
384.045	3689.97
384.267	3711.55
384.488	3737.86
384.71	3764.66
384.932	3790.13
385.153	3815.81
385.375	3842.17
385.596	3865.97
385.818	3894.86
386.039	3923.95
386.261	3951.53
386.482	3979.57
386.703	4008.1
386.925	4035.1
387.146	4064.13
387.368	4090.82
387.589	4117.35
387.81	4149.17
388.032	4176.97
388.253	4203.82
388.474	4231.86
388.696	4259.97
388.917	4291.81
389.138	4324.35
389.359	4356.41
389.581	4386.9
389.802	4417.22
390.023	4448.79
390.244	4473.9
390.465	4503.97
390.687	4532.5
390.908	4558.93
391.129	4588.99
391.35	4618.1
391.571	4646.26
391.792	4674.75
392.013	4704.32
392.234	4734.88
392.455	4766.41
392.677	4797.75
392.898	4830.99
393.119	4862.17
393.34	4893.17
393.561	4927.15
393.782	4961.02
394.003	4990.3
394.223	5021.22
394.444	5055.92
394.665	5088.97
394.886	5117.22
395.107	5150.37
395.328	5181.64
395.549	5213.68
395.77	5250.68
395.99	5280.02
396.211	5311.55
396.432	5343.97
396.653	5376.84
396.874	5410.93
397.094	5444.79
397.315	5481.57
397.536	5516.81
397.757	5546.81
397.977	5583.15
398.198	5614.79
398.419	5649.01
398.639	5680.7
398.86	5718.97
399.081	5750.5
399.301	5785.17
399.522	5818.28
399.742	5852.55
399.963	5885.26
400.184	5921.13
400.404	5953.72
400.625	5989.52
400.845	6020.95
401.066	6057.12
401.286	6091.28
401.507	6134.52
401.727	6166.79
401.948	6200.52
402.168	6235.86
402.388	6270.32
402.609	6308.3
402.829	6341.42
403.05	6373.59
403.27	6411.42
403.49	6445.21
403.711	6479.19
403.931	6506.3
404.151	6539.86
404.372	6575.92
404.592	6610.22
404.812	6642.52
405.032	6671.12
405.253	6706.59
405.473	6740.61
405.693	6769.92
405.913	6800.41
406.133	6833.13
406.353	6869.22
406.574	6902.7
406.794	6938.72
407.014	6975.01
407.234	7014.22
407.454	7052.35
407.674	7086.39
407.894	7123.39
408.114	7162.22
408.334	7204.41
408.554	7242.73
408.774	7282.08
408.994	7320.7
409.214	7352.04
409.434	7383.06
409.654	7416.72
409.874	7453.04
410.094	7494.1
410.314	7532.92
410.534	7573.62
410.754	7609.02
410.974	7643.84
411.193	7681.82
411.413	7718.55
411.633	7759.3
411.853	7798.33
412.073	7837.95
412.292	7877.32
412.512	7912.9
412.732	7952.84
412.952	7992.88
413.171	8034.48
413.391	8077.44
413.611	8114.73
413.831	8159.22
414.05	8201.12
414.27	8246.79
414.489	8286.62
414.709	8334.22
414.929	8378.32
415.148	8421.22
415.368	8463.39
415.587	8509.93
415.807	8553.3
416.026	8597.37
416.246	8639.19
416.465	8682.92
416.685	8723.72
416.904	8768.79
417.124	8808.39
417.343	8853.46
417.563	8895.9
417.782	8935.9
418.002	8974.26
418.221	9017.33
418.44	9061.97
418.66	9103.44
418.879	9148.68
419.098	9198.02
419.318	9246.39
419.537	9289.61
419.756	9332.22
419.976	9374.66
420.195	9418.42
420.414	9462.61
420.633	9510.02
420.853	9553.5
421.072	9598.32
421.291	9637.01
421.51	9675.93
421.729	9715.61
421.948	9760.15
422.168	9805.41
422.387	9849.59
422.606	9897.32
422.825	9943.66
423.044	9984.73
423.263	10027.73
423.482	10074.35
423.701	10121.7
423.92	10167.57
424.139	10217.06
424.358	10267.26
424.577	10310.39
424.796	10357.57
425.015	10400.42
425.234	10443.39
425.453	10489.61
425.672	10538.84
425.891	10583.19
426.11	10628.04
426.328	10671.1
426.547	10712.79
426.766	10756.55
426.985	10804.04
427.204	10851.01
427.422	10898.77
427.641	10946.02
427.86	10997.28
428.079	11045.1
428.297	11090.92
428.516	11143.61
428.735	11193.9
428.954	11245.79
429.172	11290.32
429.391	11337.79
429.61	11384.41
429.828	11431.95
430.047	11484.35
430.265	11528.08
430.484	11578.57
430.703	11625.28
430.921	11666.84
431.14	11715.39
431.358	11757.33
431.577	11804.15
431.795	11856.32
432.014	11907.24
432.232	11958.75
432.451	12005.33
432.669	12050.84
432.887	12094.06
433.106	12142.61
433.324	12190.75
433.543	12239.12
433.761	12288.99
433.979	12336.52
434.198	12379.84
434.416	12427.73
434.634	12470.77
434.853	12510.22
435.071	12559.86
435.289	12605.39
435.507	12652.68
435.726	12700.22
435.944	12744.86
436.162	12791.44
436.38	12836.17
436.598	12884.17
436.817	12928.66
437.035	12976.95
437.253	13028.02
437.471	13073.33
437.689	13124.02
437.907	13171.95
438.125	13220.33
438.343	13271.82
438.561	13323.02
438.78	13375.02
438.998	13426.7
439.216	13471.55
439.434	13514.46
439.652	13560.75
439.869	13610.5
440.087	13657.21
440.305	13707.28
440.523	13753.22
440.741	13798.35
440.959	13842.82
441.177	13889.79
441.395	13935.88
441.613	13987.41
441.831	14037.48
442.048	14082.24
442.266	14128.21
442.484	14171.7
442.702	14213.62
442.919	14261.39
443.137	14310.66
443.355	14363.35
443.573	14413.39
443.79	14460.08
444.008	14508.15
444.226	14561.3
444.443	14611.97
444.661	14659.12
444.879	14709.64
445.096	14762.61
445.314	14818.22
445.532	14868.44
445.749	14908.86
445.967	14957.17
446.184	15001.64
446.402	15039.97
446.619	15080.21
446.837	15124.33
447.054	15173.48
447.272	15216.73
447.489	15263.93
447.707	15308.19
447.924	15349.97
448.141	15396.33
448.359	15444.72
448.576	15499.15
448.794	15558.44
449.011	15612.15
449.228	15671.19
449.446	15718.53
449.663	15770.59
449.88	15813.79
450.098	15867.61
450.315	15920.15
450.532	15970.48
450.749	16023.12
450.967	16062.01
451.184	16106.72
451.401	16153.02
451.618	16195.15
451.835	16240.99
452.052	16288.81
452.27	16342.24
452.487	16387.59
452.704	16428.95
452.921	16482.01
453.138	16527.1
453.355	16577.84
453.572	16622.21
453.789	16672.99
454.006	16720.59
454.223	16770.68
454.44	16822.92
