Data from test1_MAYP1115451__48__10-17-25-133.txt Node

Date: Wed Jun 12 10:17:25 MDT 2024
User: Modes Lab
Spectrometer: MAYP111545
Trigger mode: 0
Integration Time (sec): 8.000000E-3
Scans to average: 5
Electric dark correction enabled: true
Nonlinearity correction enabled: false
Boxcar width: 5
XAxis mode: Wavelengths
Number of Pixels in Spectrum: 2068
>>>>>Begin Spectral Data<<<<<
165.214	164.93
165.449	165.13
165.683	173.75
165.918	182.12
166.152	188.58
166.387	194.06
166.621	125.97
166.856	164.43
167.09	181.97
167.325	205.41
167.559	221.03
167.794	235.28
168.028	242.35
168.263	244.25
168.497	244.52
168.732	245.45
168.966	246.66
169.2	248.3
169.435	249.39
169.669	251.83
169.903	253.97
170.138	255.23
170.372	256.19
170.606	257.52
170.841	258.08
171.075	259.5
171.309	260.66
171.544	261.41
171.778	262.79
172.012	265.15
172.246	266.75
172.48	267.43
172.715	270.68
172.949	272.9
173.183	274.86
173.417	276.61
173.651	277.97
173.885	279.52
174.119	281.17
174.354	282.23
174.588	282.17
174.822	282.94
175.056	282.85
175.29	282.39
175.524	281.75
175.758	281.83
175.992	282.48
176.226	283.41
176.46	283.19
176.694	283.85
176.928	284.85
177.162	286.61
177.396	285.52
177.63	287.55
177.864	288.28
178.097	289.41
178.331	289.85
178.565	290.37
178.799	289.77
179.033	290.9
179.267	290.37
179.5	290.43
179.734	289.72
179.968	292.79
180.202	293.45
180.436	294.81
180.669	295.97
180.903	297.54
181.137	299.06
181.371	301.15
181.604	301.55
181.838	303.85
182.072	304.65
182.305	306.88
182.539	307.15
182.772	307.85
183.006	308.79
183.24	309.83
183.473	313.23
183.707	314.26
183.94	314.95
184.174	316.99
184.408	316.94
184.641	318.41
184.875	319.21
185.108	320.94
185.342	322.55
185.575	323.57
185.808	324.48
186.042	323.77
186.275	324.28
186.509	325.61
186.742	327.1
186.976	328.92
187.209	329.15
187.442	330.9
187.676	331.12
187.909	331.74
188.142	332.52
188.376	334.28
188.609	335.66
188.842	337.35
189.076	339.52
189.309	341.12
189.542	342.77
189.775	345.46
190.009	345.92
190.242	347.57
190.475	349.66
190.708	351.66
190.941	352.79
191.174	354.25
191.408	356.37
191.641	356.9
191.874	357.97
192.107	359.85
192.34	362.12
192.573	364.08
192.806	366.57
193.039	368.5
193.272	370.26
193.505	373.21
193.738	375.28
193.971	376.54
194.204	378.81
194.437	379.26
194.67	380.77
194.903	380.65
195.136	383.19
195.369	384.79
195.602	387.25
195.835	389.39
196.068	390.85
196.301	392.81
196.533	395.54
196.766	397.35
196.999	400.68
197.232	403.48
197.465	405.65
197.698	407.57
197.93	409.66
198.163	410.83
198.396	413.32
198.629	414.39
198.861	416.21
199.094	417.3
199.327	419.9
199.559	421.23
199.792	422.46
200.025	426.21
200.257	429.39
200.49	431.1
200.723	433.34
200.955	434.25
201.188	437.54
201.42	439.9
201.653	442.41
201.886	444.92
202.118	447.45
202.351	449.54
202.583	451.92
202.816	453.23
203.048	455.23
203.281	457.19
203.513	460.45
203.745	462.97
203.978	465.1
204.21	467.25
204.443	468.86
204.675	470.5
204.907	472.48
205.14	474.65
205.372	476.01
205.605	478.57
205.837	480.74
206.069	482.88
206.302	484.1
206.534	485.55
206.766	488.1
206.998	490.21
207.231	492.54
207.463	495.81
207.695	498.66
207.927	500.61
208.159	503.3
208.392	506.21
208.624	508.23
208.856	511.08
209.088	515.28
209.32	516.39
209.552	519.01
209.784	521.37
210.017	522.59
210.249	522.46
210.481	525.48
210.713	526.86
210.945	527.92
211.177	530.01
211.409	532.19
211.641	532.5
211.873	535.92
212.105	537.35
212.337	539.59
212.569	541.06
212.801	544.46
213.033	546.65
213.264	549.48
213.496	551.61
213.728	553.55
213.96	554.54
214.192	555.48
214.424	555.68
214.656	556.81
214.887	558.46
215.119	561.39
215.351	562.54
215.583	564.25
215.815	565.83
216.046	568.01
216.278	568.9
216.51	570.81
216.741	573.43
216.973	576.06
217.205	578.01
217.436	580.34
217.668	582.55
217.9	583.86
218.131	584.75
218.363	584.63
218.595	586.08
218.826	588.14
219.058	589.77
219.289	591.05
219.521	591.95
219.752	593.7
219.984	594.61
220.215	594.45
220.447	596.14
220.678	597.12
220.91	599.46
221.141	598.74
221.373	598.92
221.604	599.55
221.836	600.39
222.067	601.97
222.298	602.28
222.53	603.61
222.761	604.83
222.993	605.23
223.224	605.59
223.455	606.15
223.686	608.1
223.918	610.32
224.149	612.14
224.38	612.46
224.612	613.39
224.843	614.05
225.074	613.14
225.305	613.75
225.536	614.37
225.768	614.7
225.999	614.83
226.23	616.08
226.461	615.43
226.692	614.28
226.923	615.41
227.155	616.05
227.386	618.1
227.617	619.05
227.848	620.06
228.079	621.79
228.31	623.25
228.541	624.06
228.772	623.99
229.003	624.61
229.234	625.57
229.465	624.05
229.696	623.63
229.927	622.46
230.158	623.03
230.389	621.55
230.62	619.48
230.85	620.26
231.081	619.85
231.312	619.92
231.543	618.94
231.774	617.41
232.005	618.1
232.236	617.99
232.466	617.81
232.697	617.12
232.928	618.34
233.159	619.26
233.389	619.14
233.62	620.45
233.851	621.41
234.082	622.41
234.312	623.83
234.543	625.14
234.774	624.52
235.004	624.37
235.235	624.57
235.466	624.14
235.696	623.68
235.927	623.39
236.157	622.94
236.388	622.68
236.618	622.72
236.849	622.35
237.08	622.9
237.31	622.83
237.541	622.26
237.771	621.99
238.002	622.28
238.232	621.79
238.463	621.01
238.693	621.12
238.923	619.54
239.154	619.14
239.384	617.81
239.615	615.63
239.845	614.94
240.075	615.99
240.306	615.06
240.536	613.9
240.766	613.92
240.997	613.08
241.227	611.97
241.457	611.43
241.687	610.83
241.918	612.35
242.148	612.88
242.378	612.86
242.608	610.68
242.839	610.26
243.069	608.54
243.299	608.06
243.529	609.88
243.759	610.99
243.989	610.92
244.22	610.21
244.45	607.92
244.68	608.03
244.91	607.08
245.14	607.15
245.37	607.9
245.6	608.32
245.83	607.14
246.06	605.37
246.29	604.34
246.52	603.68
246.75	603.35
246.98	605.21
247.21	602.74
247.44	603.39
247.67	602.12
247.9	602.59
248.13	602.08
248.359	601.66
248.589	599.95
248.819	597.99
249.049	596.26
249.279	595.59
249.509	593.3
249.738	592.57
249.968	591.5
250.198	592.79
250.428	591.25
250.657	591.1
250.887	591.41
251.117	590.46
251.347	590.35
251.576	591.03
251.806	591.45
252.036	590.43
252.265	591.26
252.495	590.1
252.725	588.06
252.954	587.55
253.184	587.65
253.413	586.28
253.643	586.9
253.873	585.94
254.102	585.1
254.332	583.57
254.561	583.81
254.791	582.25
255.02	581.66
255.25	582.34
255.479	580.68
255.708	579.26
255.938	577.97
256.167	575.77
256.397	575.3
256.626	574.52
256.856	572.92
257.085	571.59
257.314	572.25
257.544	573.21
257.773	571.79
258.002	572.46
258.232	572.15
258.461	572.66
258.69	572.63
258.919	571.68
259.149	570.99
259.378	571.57
259.607	571.54
259.836	570.55
260.065	568.46
260.295	568.26
260.524	567.01
260.753	567.06
260.982	565.63
261.211	564.99
261.44	564.03
261.669	562.3
261.899	561.95
262.128	560.97
262.357	560.55
262.586	560.21
262.815	558.48
263.044	558.03
263.273	559.3
263.502	559.57
263.731	558.68
263.96	558.72
264.189	559.55
264.418	558.32
264.646	557.81
264.875	555.63
265.104	555.15
265.333	554.63
265.562	553.59
265.791	550.19
266.02	548.94
266.249	548.54
266.477	548.17
266.706	547.12
266.935	545.97
267.164	545.14
267.393	545.23
267.621	544.08
267.85	543.21
268.079	542.01
268.307	541.72
268.536	541.26
268.765	541.25
268.993	539.75
269.222	538.59
269.451	538.74
269.679	539.52
269.908	538.81
270.137	538.21
270.365	538.74
270.594	538.63
270.822	538.52
271.051	538.57
271.279	537.46
271.508	539.19
271.736	540.66
271.965	541.52
272.193	540.48
272.422	541.72
272.65	542.23
272.879	542.79
273.107	542.66
273.336	541.55
273.564	540.88
273.792	540.21
274.021	538.79
274.249	535.85
274.477	533.45
274.706	531.88
274.934	529.74
275.162	528.72
275.391	526.99
275.619	526.19
275.847	525.88
276.075	524.99
276.304	524.32
276.532	522.74
276.76	523.52
276.988	522.9
277.216	523.34
277.445	523.74
277.673	523.03
277.901	524.01
278.129	523.55
278.357	522.94
278.585	521.95
278.813	522.34
279.041	521.83
279.269	521.06
279.497	520.65
279.725	519.95
279.954	517.77
280.182	516.63
280.41	514.05
280.637	513.23
280.865	511.3
281.093	511.88
281.321	510.35
281.549	510.35
281.777	510.14
282.005	509.85
282.233	509.61
282.461	509.17
282.689	508.45
282.916	508.48
283.144	508.55
283.372	507.95
283.6	506.63
283.828	506.52
284.055	504.63
284.283	503.3
284.511	502.83
284.739	502.28
284.966	503.15
285.194	502.35
285.422	501.83
285.649	501.34
285.877	501.05
286.105	500.86
286.332	500.37
286.56	500.88
286.788	501.41
287.015	500.46
287.243	498.54
287.47	497.03
287.698	497.88
287.925	497.9
288.153	496.59
288.381	496.57
288.608	495.17
288.836	494.95
289.063	494.15
289.29	492.99
289.518	492.92
289.745	492.72
289.973	491.88
290.2	490.72
290.428	488.39
290.655	486.43
290.882	486.08
291.11	485.3
291.337	484.48
291.564	484.03
291.792	483.92
292.019	482.86
292.246	482.55
292.473	482.14
292.701	480.95
292.928	481.63
293.155	482.72
293.382	482.48
293.61	483.28
293.837	482.46
294.064	482.92
294.291	481.12
294.518	481.25
294.745	480.35
294.972	480.19
295.2	480.52
295.427	480.7
295.654	480.25
295.881	479.05
296.108	478.06
296.335	477.92
296.562	476.77
296.789	476.32
297.016	475.39
297.243	476.14
297.47	475.72
297.697	475.3
297.924	473.88
298.151	473.05
298.378	473.5
298.604	472.99
298.831	472.65
299.058	472.23
299.285	473.43
299.512	472.41
299.739	470.75
299.966	469.28
300.192	468.19
300.419	467.95
300.646	467.48
300.873	465.75
301.099	466.06
301.326	465.66
301.553	464.14
301.78	464.65
302.006	463.83
302.233	463.52
302.46	463.19
302.686	463.55
302.913	463.15
303.14	462.41
303.366	462.46
303.593	460.68
303.819	460.01
304.046	459.61
304.272	457.28
304.499	457.39
304.725	458.32
304.952	458.05
305.179	457.52
305.405	457.15
305.631	457.85
305.858	458.57
306.084	458.15
306.311	457.37
306.537	456.9
306.764	456.95
306.99	456.26
307.216	454.9
307.443	455.48
307.669	455.17
307.895	454.41
308.122	453.77
308.348	453.21
308.574	452.59
308.801	452.3
309.027	452.5
309.253	452.14
309.479	452.59
309.706	452.3
309.932	452.26
310.158	451.94
310.384	452.5
310.61	452.39
310.837	451.55
311.063	452.32
311.289	452.1
311.515	452.66
311.741	452.79
311.967	453.79
312.193	453.94
312.419	453.23
312.645	453.26
312.871	452.63
313.097	453.05
313.323	452.85
313.549	454.03
313.775	454.06
314.001	453.41
314.227	453.41
314.453	452.7
314.679	453.03
314.905	453.66
315.131	453.81
315.357	454.85
315.583	454.65
315.809	455.92
316.034	454.55
316.26	456.65
316.486	457.1
316.712	457.25
316.938	456.94
317.163	458.06
317.389	458.08
317.615	458.1
317.841	458.21
318.066	457.57
318.292	457.48
318.518	458.88
318.743	458.79
318.969	460.32
319.195	462.15
319.42	462.14
319.646	461.97
319.872	463.5
320.097	464.81
320.323	465.99
320.548	468.25
320.774	468.97
320.999	470.08
321.225	471.28
321.45	471.72
321.676	472.14
321.901	473.95
322.127	475.74
322.352	477.08
322.578	478.74
322.803	479.79
323.029	481.12
323.254	482.94
323.479	483.06
323.705	483.83
323.93	485.17
324.155	487.12
324.381	489.35
324.606	490.66
324.831	492.72
325.057	494.52
325.282	496.06
325.507	497.72
325.732	500.1
325.958	503.99
326.183	507.48
326.408	510.68
326.633	512.59
326.858	514.63
327.084	517.25
327.309	519.35
327.534	521.63
327.759	524.17
327.984	527.57
328.209	529.79
328.434	532.74
328.659	535.1
328.884	539.01
329.109	542.3
329.334	545.41
329.559	549.03
329.784	552.54
330.009	556.21
330.234	560.45
330.459	563.32
330.684	567.19
330.909	570.61
331.134	574.05
331.359	577.06
331.584	581.59
331.809	586.28
332.034	589.9
332.259	593.34
332.483	597.52
332.708	601.32
332.933	606.32
333.158	611.12
333.383	616.46
333.607	621.43
333.832	625.92
334.057	630.68
334.282	636.06
334.506	641.37
334.731	647.14
334.956	653.01
335.18	658.59
335.405	664.75
335.63	670.17
335.854	674.74
336.079	680.25
336.303	685.75
336.528	689.32
336.753	695.75
336.977	702.83
337.202	709.05
337.426	715.79
337.651	721.12
337.875	726.03
338.1	732.85
338.324	739.03
338.549	746.34
338.773	752.05
338.997	761.92
339.222	767.57
339.446	774.25
339.671	782.12
339.895	787.7
340.119	794.66
340.344	802.68
340.568	809.55
340.792	818.17
341.017	824.68
341.241	833.23
341.465	840.23
341.689	847.72
341.914	854.01
342.138	861.97
342.362	870.59
342.586	881.46
342.811	890.26
343.035	898.35
343.259	905.92
343.483	916.05
343.707	925.99
343.931	935.08
344.155	944.79
344.38	955.63
344.604	964.63
344.828	974.74
345.052	983.88
345.276	994.39
345.5	1003.21
345.724	1013.08
345.948	1020.61
346.172	1030.65
346.396	1039.72
346.62	1052.57
346.844	1062.43
347.068	1072.72
347.292	1083.41
347.515	1092.3
347.739	1101.99
347.963	1112.72
348.187	1122.55
348.411	1135.59
348.635	1145.15
348.859	1157.05
349.082	1164.45
349.306	1173.81
349.53	1184.28
349.754	1194.32
349.977	1205.45
350.201	1213.3
350.425	1225.57
350.649	1237.48
350.872	1246.52
351.096	1256.66
351.32	1265.88
351.543	1278.05
351.767	1288.55
351.99	1298.5
352.214	1308.74
352.438	1319.26
352.661	1332.5
352.885	1343.86
353.108	1354.15
353.332	1366.46
353.555	1377.92
353.779	1388.88
354.002	1399.15
354.226	1410.72
354.449	1423.7
354.673	1437.14
354.896	1449.54
355.12	1462.05
355.343	1475.05
355.566	1487.01
355.79	1499.06
356.013	1512.23
356.237	1525.7
356.46	1539.3
356.683	1553.3
356.907	1564.19
357.13	1575.03
357.353	1586.59
357.576	1600.19
357.8	1609.5
358.023	1622.81
358.246	1635.7
358.469	1648.83
358.693	1660.59
358.916	1672.25
359.139	1685.01
359.362	1698.86
359.585	1712.23
359.808	1726.03
360.031	1739.66
360.255	1755.17
360.478	1769.59
360.701	1785.65
360.924	1799.55
361.147	1812.85
361.37	1827.46
361.593	1840.12
361.816	1854.06
362.039	1870.57
362.262	1883.63
362.485	1893.65
362.708	1907.92
362.931	1917.99
363.154	1927.48
363.377	1939.32
363.599	1953.95
363.822	1966.83
364.045	1982.46
364.268	1994.01
364.491	2003.72
364.714	2017.48
364.936	2034.5
365.159	2046.32
365.382	2062.63
365.605	2078.17
365.828	2094.68
366.05	2109.75
366.273	2125.95
366.496	2139.39
366.718	2155.59
366.941	2174.65
367.164	2191.65
367.386	2207.05
367.609	2224.92
367.832	2241.05
368.054	2256.37
368.277	2271.61
368.5	2287.08
368.722	2303.32
368.945	2321.55
369.167	2339.3
369.39	2353.1
369.612	2366.72
369.835	2381.43
370.057	2398.26
370.28	2414.66
370.502	2433.57
370.725	2450.05
370.947	2465.75
371.169	2480.85
371.392	2496.19
371.614	2511.3
371.837	2529.65
372.059	2548.06
372.281	2566.43
372.504	2582.92
372.726	2599.21
372.948	2615.79
373.171	2632.12
373.393	2650.52
373.615	2667.95
373.837	2685.45
374.06	2703.65
374.282	2718.3
374.504	2739.5
374.726	2755.68
374.948	2774.01
375.17	2795.23
375.393	2812.5
375.615	2831.85
375.837	2850.14
376.059	2867.92
376.281	2886.65
376.503	2909.26
376.725	2930.46
376.947	2947.19
377.169	2965.06
377.391	2980.3
377.613	2998.68
377.835	3019.3
378.057	3040.92
378.279	3062.57
378.501	3088.7
378.723	3109.46
378.945	3127.88
379.167	3150.54
379.389	3173.12
379.611	3196.01
379.833	3224.61
380.054	3248.08
380.276	3271.03
380.498	3292.9
380.72	3316.26
380.942	3334.32
381.163	3362.21
381.385	3389.12
381.607	3412.46
381.829	3436.35
382.05	3465.21
382.272	3487.41
382.494	3512.45
382.716	3536.28
382.937	3562.3
383.159	3587.32
383.381	3616.01
383.602	3637.06
383.824	3660.88
384.045	3686.08
384.267	3711.46
384.488	3735.85
384.71	3761.15
384.932	3787.85
385.153	3815.21
385.375	3844.14
385.596	3868.1
385.818	3896.77
386.039	3925.63
386.261	3954.5
386.482	3982.21
386.703	4009.63
386.925	4038.3
387.146	4067.86
387.368	4095.21
387.589	4121.48
387.81	4143.95
388.032	4177.95
388.253	4205.06
388.474	4233.17
388.696	4259.15
388.917	4286.39
389.138	4316.37
389.359	4342.99
389.581	4373.08
389.802	4403.65
390.023	4433.5
390.244	4467.03
390.465	4493.65
390.687	4521.03
390.908	4550.01
391.129	4580.75
391.35	4612.3
391.571	4644.94
391.792	4677.28
392.013	4706.37
392.234	4735.37
392.455	4769.06
392.677	4799.08
392.898	4830.74
393.119	4864.95
393.34	4896.35
393.561	4927.14
393.782	4957.9
394.003	4990.65
394.223	5024.85
394.444	5058.28
394.665	5090.59
394.886	5121.86
395.107	5157.21
395.328	5191.86
395.549	5224.86
395.77	5263.68
395.99	5298.45
396.211	5335.39
396.432	5364.81
396.653	5398.43
396.874	5431.37
397.094	5465.39
397.315	5502.92
397.536	5531.81
397.757	5566.01
397.977	5598.15
398.198	5628.81
398.419	5661.23
398.639	5693.81
398.86	5728.61
399.081	5763.35
399.301	5799.03
399.522	5835.08
399.742	5867.72
399.963	5907.37
400.184	5938.63
400.404	5973.72
400.625	6009.59
400.845	6040.26
401.066	6071.79
401.286	6102.54
401.507	6133.65
401.727	6167.97
401.948	6199.85
402.168	6232.01
402.388	6262.37
402.609	6295.77
402.829	6328.32
403.05	6359.39
403.27	6400.54
403.49	6439.19
403.711	6480.77
403.931	6515.48
404.151	6545.39
404.372	6576.94
404.592	6609.37
404.812	6643.83
405.032	6679.83
405.253	6715.3
405.473	6750.43
405.693	6780.46
405.913	6814.63
406.133	6845.99
406.353	6882.57
406.574	6921.48
406.794	6959.48
407.014	6993.23
407.234	7033.28
407.454	7070.88
407.674	7109.52
407.894	7145.79
408.114	7184.06
408.334	7217.9
408.554	7255.61
408.774	7290.1
408.994	7328.48
409.214	7364.05
409.434	7403.08
409.654	7433.85
409.874	7467.7
410.094	7501.45
410.314	7537.7
410.534	7571.61
410.754	7608.34
410.974	7645.35
411.193	7680.7
411.413	7713.74
411.633	7757.15
411.853	7792.3
412.073	7829.48
412.292	7866.9
412.512	7903.88
412.732	7937.97
412.952	7983.43
413.171	8023.37
413.391	8065.1
413.611	8109.9
413.831	8152.39
414.05	8191.39
414.27	8236.12
414.489	8284.14
414.709	8329.1
414.929	8373.79
415.148	8420.54
415.368	8464.79
415.587	8508.61
415.807	8547.05
416.026	8586.97
416.246	8629.77
416.465	8673.41
416.685	8718.61
416.904	8760.95
417.124	8804.77
417.343	8845.94
417.563	8889.77
417.782	8934.43
418.002	8980.65
418.221	9025.72
418.44	9073.15
418.66	9116.72
418.879	9164.39
419.098	9209.28
419.318	9251.66
419.537	9293.54
419.756	9339.72
419.976	9384.1
420.195	9422.74
420.414	9464.01
420.633	9507.81
420.853	9549.85
421.072	9595.86
421.291	9630.5
421.51	9671.72
421.729	9714.59
421.948	9758.99
422.168	9803.23
422.387	9845.32
422.606	9889.45
422.825	9934.86
423.044	9980.32
423.263	10024.41
423.482	10066.68
423.701	10116.26
423.92	10161.61
424.139	10205.81
424.358	10250.77
424.577	10300.61
424.796	10347.43
425.015	10397.99
425.234	10441.48
425.453	10488.28
425.672	10531.59
425.891	10575.61
426.11	10617.9
426.328	10662.35
426.547	10707.28
426.766	10754.88
426.985	10797.15
427.204	10843.35
427.422	10882.75
427.641	10934.25
427.86	10981.65
428.079	11032.59
428.297	11088.37
428.516	11135.86
428.735	11184.25
428.954	11234.66
429.172	11287.1
429.391	11333.5
429.61	11385.68
429.828	11437.74
430.047	11482.06
430.265	11530.35
430.484	11577.37
430.703	11614.14
430.921	11667.57
431.14	11713.43
431.358	11759.63
431.577	11803.32
431.795	11849.97
432.014	11894.61
432.232	11943.19
432.451	11991.26
432.669	12037.75
432.887	12083.28
433.106	12138.05
433.324	12181.17
433.543	12232.66
433.761	12280.34
433.979	12329.34
434.198	12378.65
434.416	12425.74
434.634	12469.83
434.853	12519.1
435.071	12562.32
435.289	12609.66
435.507	12653.21
435.726	12703.46
435.944	12747.05
436.162	12800.3
436.38	12844.57
436.598	12891.46
436.817	12939.41
437.035	12984.19
437.253	13027.5
437.471	13076.35
437.689	13124.41
437.907	13177.48
438.125	13225.9
438.343	13278.59
438.561	13324.28
438.78	13374.55
438.998	13424.83
439.216	13471.14
439.434	13527.23
439.652	13577.97
439.869	13626.46
440.087	13671.9
440.305	13717.68
440.523	13767.03
440.741	13810.85
440.959	13856.1
441.177	13904.5
441.395	13948.28
441.613	13999.74
441.831	14040.37
442.048	14078.95
442.266	14124.85
442.484	14175.55
442.702	14222.79
442.919	14263.05
443.137	14315.63
443.355	14365.57
443.573	14413.81
443.79	14469.34
444.008	14516.08
444.226	14564.77
444.443	14623.94
444.661	14674.32
444.879	14719.05
445.096	14764.86
445.314	14814.37
445.532	14860.7
445.749	14907.92
445.967	14951.39
446.184	14987.92
446.402	15037.15
446.619	15081.41
446.837	15123.83
447.054	15172.83
447.272	15221.63
447.489	15269.03
447.707	15318.06
447.924	15364.52
448.141	15411.83
448.359	15462.3
448.576	15522.75
448.794	15568.77
449.011	15625.26
449.228	15673.39
449.446	15712.79
449.663	15765.17
449.88	15819.75
450.098	15863.65
450.315	15909.52
450.532	15959.86
450.749	16007.95
450.967	16046.06
451.184	16101.23
451.401	16144.01
451.618	16189.68
451.835	16246.32
452.052	16295.55
452.27	16339.23
452.487	16389.9
452.704	16436.61
452.921	16485.7
453.138	16531.97
453.355	16580.92
453.572	16616.21
453.789	16667.5
454.006	16712.92
454.223	16758.46
454.44	16801.63
