Data from test1_MAYP1115451__44__10-17-24-017.txt Node

Date: Wed Jun 12 10:17:24 MDT 2024
User: Modes Lab
Spectrometer: MAYP111545
Trigger mode: 0
Integration Time (sec): 8.000000E-3
Scans to average: 5
Electric dark correction enabled: true
Nonlinearity correction enabled: false
Boxcar width: 5
XAxis mode: Wavelengths
Number of Pixels in Spectrum: 2068
>>>>>Begin Spectral Data<<<<<
165.214	164.37
165.449	165.83
165.683	176.16
165.918	184.83
166.152	190.89
166.387	195.74
166.621	126.51
166.856	165.83
167.09	184.56
167.325	207.78
167.559	224.49
167.794	238.2
168.028	244.38
168.263	244.51
168.497	244.02
168.732	245.27
168.966	246.14
169.2	247.94
169.435	248.85
169.669	250.05
169.903	251.74
170.138	253.85
170.372	255.27
170.606	257
170.841	258.34
171.075	259.92
171.309	260.78
171.544	261.94
171.778	263.89
172.012	265.56
172.246	267.2
172.48	269.62
172.715	271.03
172.949	273.36
173.183	275.14
173.417	276.51
173.651	278.11
173.885	279.34
174.119	281.12
174.354	281.07
174.588	281.54
174.822	281.25
175.056	280.72
175.29	280.31
175.524	280.07
175.758	280.14
175.992	280.58
176.226	280.69
176.46	281.29
176.694	281.32
176.928	282.23
177.162	283.25
177.396	284.31
177.63	286.18
177.864	287.34
178.097	288.4
178.331	289.32
178.565	289.91
178.799	290.49
179.033	290.67
179.267	291.52
179.5	292.98
179.734	292.52
179.968	294.78
180.202	295.09
180.436	295.83
180.669	295.74
180.903	296.67
181.137	298.27
181.371	299.74
181.604	301.09
181.838	301.82
182.072	302.54
182.305	305.2
182.539	304.45
182.772	306.22
183.006	307.51
183.24	308.29
183.473	311.91
183.707	313.23
183.94	315
184.174	316.54
184.408	319.05
184.641	320.8
184.875	320.85
185.108	323.2
185.342	322.98
185.575	324.58
185.808	326.76
186.042	325.58
186.275	325.52
186.509	325.69
186.742	326.71
186.976	327.02
187.209	327.85
187.442	330.83
187.676	331.8
187.909	333.58
188.142	333.96
188.376	335.23
188.609	336.58
188.842	338.62
189.076	340.42
189.309	341.74
189.542	342.72
189.775	343.32
190.009	343.36
190.242	345.65
190.475	347.52
190.708	349.38
190.941	351.63
191.174	353.34
191.408	355.14
191.641	357
191.874	359.02
192.107	362.07
192.34	364.45
192.573	367.65
192.806	369.16
193.039	370.18
193.272	372.82
193.505	374.27
193.738	376.18
193.971	378.51
194.204	380.47
194.437	382.91
194.67	384.02
194.903	385.52
195.136	386.05
195.369	388.42
195.602	389.78
195.835	390.91
196.068	394.11
196.301	396.27
196.533	396.6
196.766	397.87
196.999	399.63
197.232	402.25
197.465	405.12
197.698	407.65
197.93	409.45
198.163	412.29
198.396	415.72
198.629	416.72
198.861	418.31
199.094	421.62
199.327	424.85
199.559	425.91
199.792	426.72
200.025	428.45
200.257	430.14
200.49	431.51
200.723	433.69
200.955	434.54
201.188	435.4
201.42	438.12
201.653	440.2
201.886	441.85
202.118	444.47
202.351	446.52
202.583	450.11
202.816	453.67
203.048	456.31
203.281	457.51
203.513	459.52
203.745	463.31
203.978	465.85
204.21	468.43
204.443	471.71
204.675	473.98
204.907	477.63
205.14	478.71
205.372	479.49
205.605	482.02
205.837	485
206.069	487.65
206.302	488.34
206.534	489.83
206.766	492.14
206.998	493.74
207.231	496.85
207.463	498.09
207.695	499.8
207.927	503.34
208.159	504.2
208.392	506.98
208.624	509
208.856	512.65
209.088	514.82
209.32	516.16
209.552	518.52
209.784	518.16
210.017	520.83
210.249	522.49
210.481	523
210.713	525.23
210.945	526.03
211.177	527.38
211.409	528.98
211.641	531.34
211.873	532.94
212.105	533.74
212.337	536.98
212.569	538.4
212.801	541.31
213.033	543.62
213.264	544.54
213.496	547.25
213.728	550.03
213.96	551.45
214.192	553.69
214.424	556.58
214.656	558.47
214.887	561.4
215.119	563.4
215.351	566.43
215.583	567.87
215.815	572.27
216.046	574.05
216.278	575.4
216.51	577.4
216.741	578.47
216.973	578.54
217.205	579.8
217.436	581.27
217.668	584.56
217.9	584.52
218.131	585.8
218.363	585.49
218.595	587.29
218.826	588.67
219.058	590.43
219.289	591.38
219.521	593.89
219.752	594.69
219.984	594.29
220.215	592.45
220.447	592.51
220.678	594.25
220.91	595.47
221.141	595.91
221.373	597.11
221.604	597.65
221.836	599.12
222.067	599.98
222.298	601.6
222.53	604.07
222.761	606.51
222.993	607.22
223.224	607.92
223.455	609.12
223.686	609.78
223.918	610.34
224.149	611.54
224.38	611.82
224.612	611.98
224.843	614.31
225.074	614.83
225.305	615.09
225.536	616.83
225.768	618.18
225.999	618.6
226.23	619.87
226.461	621.23
226.692	620.94
226.923	621.45
227.155	623.2
227.386	621.56
227.617	621.38
227.848	621.54
228.079	623.6
228.31	622.92
228.541	624.11
228.772	624.34
229.003	623.27
229.234	624.42
229.465	625.36
229.696	625.12
229.927	624.94
230.158	625.62
230.389	626.25
230.62	624.82
230.85	625.76
231.081	625.4
231.312	625.78
231.543	626
231.774	625.31
232.005	624.29
232.236	624.98
232.466	626.43
232.697	624.72
232.928	623.83
233.159	624.71
233.389	624.38
233.62	625.52
233.851	624.76
234.082	624.71
234.312	625.14
234.543	624.89
234.774	623.2
235.004	622.4
235.235	623.65
235.466	624.22
235.696	622.85
235.927	621.94
236.157	620.96
236.388	621.12
236.618	621.87
236.849	621.51
237.08	622.22
237.31	621.65
237.541	620.4
237.771	619.38
238.002	619.47
238.232	619.54
238.463	619.62
238.693	618.8
238.923	618.71
239.154	617.54
239.384	617.12
239.615	615.52
239.845	616.38
240.075	617.23
240.306	616.89
240.536	616.02
240.766	615.31
240.997	615.85
241.227	615.52
241.457	614.87
241.687	616.31
241.918	615.8
242.148	615.76
242.378	613.83
242.608	612.71
242.839	612.8
243.069	611.4
243.299	609.83
243.529	609.45
243.759	608.62
243.989	606.85
244.22	604.83
244.45	604.87
244.68	604.91
244.91	606.18
245.14	606.82
245.37	607.14
245.6	608.62
245.83	610.74
246.06	608.78
246.29	609.89
246.52	610.65
246.75	609.67
246.98	608.56
247.21	608.58
247.44	607.2
247.67	605.65
247.9	605.18
248.13	603.23
248.359	600.52
248.589	600.23
248.819	598.45
249.049	597.63
249.279	597.2
249.509	596.43
249.738	595.38
249.968	595
250.198	593.85
250.428	592
250.657	591.83
250.887	592.42
251.117	592.4
251.347	590.52
251.576	590.54
251.806	591.07
252.036	590.45
252.265	590.07
252.495	590.03
252.725	589.47
252.954	588.87
253.184	587.56
253.413	586.54
253.643	586.18
253.873	586.69
254.102	586.34
254.332	585.71
254.561	585.72
254.791	584.65
255.02	584.12
255.25	584.98
255.479	584.38
255.708	583.83
255.938	582.74
256.167	581.38
256.397	580.02
256.626	578.87
256.856	577.47
257.085	576.32
257.314	576.05
257.544	574.85
257.773	573.82
258.002	573.98
258.232	573.94
258.461	573.87
258.69	573.85
258.919	574.89
259.149	573.71
259.378	572.96
259.607	572.32
259.836	570.82
260.065	570.63
260.295	569.71
260.524	568.78
260.753	568.45
260.982	567.56
261.211	566.31
261.44	564.25
261.669	564.78
261.899	564.18
262.128	562.83
262.357	562.49
262.586	560.47
262.815	559.56
263.044	557.87
263.273	559.76
263.502	558.94
263.731	558.65
263.96	559.03
264.189	557.96
264.418	558.16
264.646	557.91
264.875	557.27
265.104	557.42
265.333	557.4
265.562	558.27
265.791	553.89
266.02	552.25
266.249	551.09
266.477	550.36
266.706	548.51
266.935	545.89
267.164	545.71
267.393	545.07
267.621	543.69
267.85	541.43
268.079	539.63
268.307	539.43
268.536	541.03
268.765	539.45
268.993	538.8
269.222	538.69
269.451	538.83
269.679	537.36
269.908	537.56
270.137	538.92
270.365	538.23
270.594	537.47
270.822	537.96
271.051	536.87
271.279	538.92
271.508	539.92
271.736	540.96
271.965	541.23
272.193	542.62
272.422	542.43
272.65	541.51
272.879	543.25
273.107	543.58
273.336	542.65
273.564	542.74
273.792	540.91
274.021	537.87
274.249	536
274.477	536.38
274.706	534.62
274.934	532.92
275.162	530.47
275.391	529.45
275.619	527.96
275.847	526.45
276.075	526.22
276.304	525.16
276.532	524.83
276.76	523.6
276.988	520.56
277.216	519.91
277.445	518.34
277.673	518.8
277.901	517.91
278.129	517.22
278.357	517.65
278.585	514.94
278.813	514.56
279.041	514.6
279.269	514.2
279.497	514.74
279.725	514
279.954	515.36
280.182	514.98
280.41	514.49
280.637	514.4
280.865	513.03
281.093	512.91
281.321	512.76
281.549	511.07
281.777	510.85
282.005	510.09
282.233	510.38
282.461	509.45
282.689	508.76
282.916	507.38
283.144	506.63
283.372	506.85
283.6	507.16
283.828	506.11
284.055	506.52
284.283	505
284.511	504.23
284.739	504.34
284.966	503.12
285.194	502.98
285.422	502.62
285.649	501.96
285.877	500.72
286.105	500.14
286.332	499.76
286.56	500.02
286.788	501.29
287.015	501.2
287.243	499.29
287.47	498.67
287.698	497.58
287.925	497.63
288.153	498.32
288.381	498.83
288.608	497.94
288.836	497.83
289.063	496.52
289.29	495.31
289.518	495.4
289.745	494.83
289.973	495.18
290.2	494.89
290.428	494.14
290.655	493.25
290.882	492.12
291.11	490.67
291.337	490.52
291.564	488.91
291.792	489.25
292.019	487.83
292.246	487.03
292.473	485.27
292.701	484.23
292.928	484.02
293.155	483.29
293.382	482.89
293.61	481.98
293.837	481.34
294.064	480.23
294.291	479.11
294.518	478.62
294.745	478.32
294.972	479.22
295.2	478.58
295.427	478.63
295.654	478.29
295.881	477.38
296.108	478.03
296.335	476.54
296.562	477.54
296.789	476.87
297.016	477
297.243	476.52
297.47	475.67
297.697	475.58
297.924	474.65
298.151	473.82
298.378	473.09
298.604	472.76
298.831	472.52
299.058	472.32
299.285	471.82
299.512	470.47
299.739	469
299.966	468.07
300.192	467
300.419	466.45
300.646	466.8
300.873	467.25
301.099	466.51
301.326	465.4
301.553	465.31
301.78	466.09
302.006	466
302.233	467.65
302.46	467.14
302.686	467.54
302.913	466.14
303.14	465.25
303.366	464.49
303.593	463.51
303.819	463.85
304.046	463.07
304.272	462.32
304.499	462.52
304.725	460.22
304.952	460.58
305.179	459.67
305.405	459.76
305.631	458.09
305.858	457.4
306.084	456.72
306.311	457.47
306.537	456.98
306.764	455.56
306.99	455.11
307.216	455.58
307.443	455.18
307.669	455.07
307.895	455.12
308.122	454.98
308.348	454.85
308.574	456
308.801	455.67
309.027	454.72
309.253	454.43
309.479	454.83
309.706	454.71
309.932	454.23
310.158	453.82
310.384	453.32
310.61	454.34
310.837	454.18
311.063	453.83
311.289	452.62
311.515	452.78
311.741	452.12
311.967	452.12
312.193	452.29
312.419	452.96
312.645	452.85
312.871	452.36
313.097	452.38
313.323	452.65
313.549	452.67
313.775	453.05
314.001	453.76
314.227	455.02
314.453	454.49
314.679	454.52
314.905	454.23
315.131	453.4
315.357	455.03
315.583	454.09
315.809	453.29
316.034	453.8
316.26	454.16
316.486	454.18
316.712	454.42
316.938	454.11
317.163	454.31
317.389	454.36
317.615	456.96
317.841	457.43
318.066	458.92
318.292	460.69
318.518	460.78
318.743	461.05
318.969	461.18
319.195	462.6
319.42	463.67
319.646	464.38
319.872	464.72
320.097	465.45
320.323	466.23
320.548	466.65
320.774	467.85
320.999	468.4
321.225	469.96
321.45	472.11
321.676	472.29
321.901	473.82
322.127	474.92
322.352	476.05
322.578	476.4
322.803	477.45
323.029	479.94
323.254	481.58
323.479	483.49
323.705	485.8
323.93	486.78
324.155	488.82
324.381	490.71
324.606	493.65
324.831	496.83
325.057	498.94
325.282	501.54
325.507	503.23
325.732	504.58
325.958	507.11
326.183	508.83
326.408	511.12
326.633	513.65
326.858	515.58
327.084	517.92
327.309	520.34
327.534	524.05
327.759	525.38
327.984	527.71
328.209	530.69
328.434	534.07
328.659	536.74
328.884	540.25
329.109	542.76
329.334	545.51
329.559	548.56
329.784	550.62
330.009	553.52
330.234	557.72
330.459	561.16
330.684	565.4
330.909	568.14
331.134	572.18
331.359	575.89
331.584	580.32
331.809	585.02
332.034	588.8
332.259	593.03
332.483	596.8
332.708	600.87
332.933	605.83
333.158	610.29
333.383	616.11
333.607	620.03
333.832	625.42
334.057	630.6
334.282	635.89
334.506	641.52
334.731	648.32
334.956	654.56
335.18	659.49
335.405	665.49
335.63	670.78
335.854	675.74
336.079	683.02
336.303	687.67
336.528	693.51
336.753	700.51
336.977	706.54
337.202	712.03
337.426	717.29
337.651	724.4
337.875	729.83
338.1	736.16
338.324	742.92
338.549	749.02
338.773	756.96
338.997	761.63
339.222	767.47
339.446	774.38
339.671	781.67
339.895	789.74
340.119	796.87
340.344	804.87
340.568	812.43
340.792	820.47
341.017	828.43
341.241	835.56
341.465	844.98
341.689	853.27
341.914	861.8
342.138	870.8
342.362	878.45
342.586	887
342.811	894.05
343.035	902.65
343.259	912.14
343.483	919.71
343.707	928.92
343.931	938.31
344.155	945.67
344.38	953.47
344.604	961.16
344.828	970.03
345.052	979.25
345.276	990.14
345.5	998.82
345.724	1008.07
345.948	1017.51
346.172	1026.27
346.396	1036.8
346.62	1050.82
346.844	1060.92
347.068	1070.94
347.292	1082.54
347.515	1093.91
347.739	1105.38
347.963	1115.69
348.187	1123.85
348.411	1134.87
348.635	1145.23
348.859	1154.07
349.082	1161.98
349.306	1171.65
349.53	1181.87
349.754	1191
349.977	1200.6
350.201	1210.87
350.425	1221.96
350.649	1232.31
350.872	1242.89
351.096	1253.45
351.32	1265.71
351.543	1276.12
351.767	1288.54
351.99	1300.89
352.214	1313.71
352.438	1325.11
352.661	1334.58
352.885	1346.87
353.108	1360.71
353.332	1372.89
353.555	1386.14
353.779	1397.76
354.002	1410.82
354.226	1422.67
354.449	1433.98
354.673	1443.74
354.896	1454.2
355.12	1465.52
355.343	1477.98
355.566	1489.62
355.79	1501.92
356.013	1513.67
356.237	1523.07
356.46	1532.91
356.683	1545.63
356.907	1560.34
357.13	1572.52
357.353	1587.4
357.576	1601.07
357.8	1612.36
358.023	1625.74
358.246	1636.31
358.469	1649.25
358.693	1664.02
358.916	1680.4
359.139	1691.02
359.362	1702.83
359.585	1715.8
359.808	1727.54
360.031	1742.11
360.255	1757.07
360.478	1770.27
360.701	1786.11
360.924	1798.8
361.147	1812.85
361.37	1824.43
361.593	1842
361.816	1853.76
362.039	1869.32
362.262	1883.98
362.485	1895.94
362.708	1908.03
362.931	1921.07
363.154	1934.25
363.377	1948.14
363.599	1960.91
363.822	1972.94
364.045	1985.02
364.268	1999.34
364.491	2013.94
364.714	2026.25
364.936	2040.22
365.159	2053.72
365.382	2067.31
365.605	2080.51
365.828	2098.43
366.05	2114.51
366.273	2132.63
366.496	2148.4
366.718	2165.43
366.941	2179.82
367.164	2196.03
367.386	2212.92
367.609	2229.16
367.832	2244.49
368.054	2259.74
368.277	2272.25
368.5	2288.51
368.722	2302.25
368.945	2318.14
369.167	2332.38
369.39	2347.05
369.612	2362.67
369.835	2378.8
370.057	2392.94
370.28	2410.14
370.502	2428.05
370.725	2445.09
370.947	2459.69
371.169	2477.05
371.392	2494.96
371.614	2513
371.837	2532.98
372.059	2548.62
372.281	2565.72
372.504	2584.62
372.726	2603.11
372.948	2617.62
373.171	2635.78
373.393	2651.58
373.615	2666.4
373.837	2682.36
374.06	2698.78
374.282	2716.47
374.504	2736.4
374.726	2753.32
374.948	2771.29
375.17	2788.74
375.393	2809.8
375.615	2828.6
375.837	2850.11
376.059	2870.85
376.281	2891.36
376.503	2910.32
376.725	2928.6
376.947	2950.02
377.169	2968.83
377.391	2989.34
377.613	3009.49
377.835	3028.82
378.057	3048.05
378.279	3068.67
378.501	3090.22
378.723	3109.38
378.945	3132.43
379.167	3153.38
379.389	3174.94
379.611	3201.51
379.833	3224.27
380.054	3247.14
380.276	3270.87
380.498	3294.8
380.72	3319.4
380.942	3344.16
381.163	3367.82
381.385	3392
381.607	3416.76
381.829	3441.72
382.05	3462.63
382.272	3486.78
382.494	3511.52
382.716	3536.47
382.937	3561.4
383.159	3587.11
383.381	3612.45
383.602	3638.51
383.824	3661.31
384.045	3684.82
384.267	3709.2
384.488	3737.51
384.71	3764.12
384.932	3789.47
385.153	3818.51
385.375	3844.62
385.596	3870.27
385.818	3897.76
386.039	3923.22
386.261	3952.18
386.482	3980.52
386.703	4008.74
386.925	4035.65
387.146	4064.62
387.368	4092.31
387.589	4122.65
387.81	4150.07
388.032	4178.58
388.253	4205.87
388.474	4237.38
388.696	4269.38
388.917	4300.03
389.138	4327.56
389.359	4356.91
389.581	4383.56
389.802	4415.29
390.023	4441.42
390.244	4470.6
390.465	4500.51
390.687	4528.42
390.908	4557.89
391.129	4581.74
391.35	4610.4
391.571	4644.03
391.792	4674.16
392.013	4705.76
392.234	4733.22
392.455	4765.52
392.677	4798.92
392.898	4829.82
393.119	4862.92
393.34	4895.82
393.561	4929.72
393.782	4963.29
394.003	4993.92
394.223	5027.71
394.444	5063.52
394.665	5097.6
394.886	5125.45
395.107	5156.18
395.328	5188.29
395.549	5224.82
395.77	5255.45
395.99	5289.96
396.211	5324.96
396.432	5358.91
396.653	5387.91
396.874	5423.62
397.094	5458.45
397.315	5496.16
397.536	5532.38
397.757	5565.16
397.977	5595.43
398.198	5628.62
398.419	5664.12
398.639	5699.31
398.86	5730.54
399.081	5765.16
399.301	5794.87
399.522	5827.58
399.742	5863.22
399.963	5894.45
400.184	5930.32
400.404	5967.47
400.625	6002.94
400.845	6036.14
401.066	6066.96
401.286	6100.87
401.507	6138.74
401.727	6173
401.948	6207.65
402.168	6239.32
402.388	6275.69
402.609	6309.63
402.829	6343.8
403.05	6380.14
403.27	6411.05
403.49	6446.65
403.711	6483.76
403.931	6518.25
404.151	6552.42
404.372	6584.49
404.592	6616.87
404.812	6649.63
405.032	6683.14
405.253	6713.91
405.473	6743.22
405.693	6778.16
405.913	6809.51
406.133	6840.91
406.353	6877.29
406.574	6913.27
406.794	6948.42
407.014	6983.07
407.234	7022.42
407.454	7057.82
407.674	7093.09
407.894	7131.98
408.114	7166.51
408.334	7202.38
408.554	7247.54
408.774	7282.6
408.994	7319.07
409.214	7357.54
409.434	7399.32
409.654	7430.45
409.874	7469
410.094	7510.12
410.314	7545.94
410.534	7580.87
410.754	7621.89
410.974	7651.69
411.193	7684.87
411.413	7720.89
411.633	7756.94
411.853	7788.69
412.073	7833.23
412.292	7872.05
412.512	7903.52
412.732	7947.83
412.952	7995.8
413.171	8038.43
413.391	8081.31
413.611	8123.54
413.831	8166.89
414.05	8210.4
414.27	8258.85
414.489	8301.38
414.709	8344.43
414.929	8390.56
415.148	8428.98
415.368	8470.16
415.587	8510.78
415.807	8548.2
416.026	8586.2
416.246	8631.34
416.465	8672.38
416.685	8711.25
416.904	8747.76
417.124	8789.16
417.343	8835.11
417.563	8879.67
417.782	8921.14
418.002	8964.47
418.221	9013.8
418.44	9065.02
418.66	9107.71
418.879	9155.11
419.098	9201.89
419.318	9250.31
419.537	9292.38
419.756	9336.87
419.976	9375.96
420.195	9423.11
420.414	9464.72
420.633	9504.09
420.853	9549.74
421.072	9592.76
421.291	9640.2
421.51	9686.02
421.729	9722.98
421.948	9766.32
422.168	9807.11
422.387	9855.4
422.606	9900.27
422.825	9944.71
423.044	9992.62
423.263	10035.52
423.482	10082.29
423.701	10122.82
423.92	10164.69
424.139	10212.65
424.358	10259.52
424.577	10304.87
424.796	10353.67
425.015	10396.38
425.234	10446.12
425.453	10491.69
425.672	10536.29
425.891	10579.71
426.11	10628.34
426.328	10671.62
426.547	10715.09
426.766	10764.65
426.985	10811.98
427.204	10857.94
427.422	10903.62
427.641	10944
427.86	10989.92
428.079	11038.54
428.297	11086
428.516	11131.62
428.735	11185.03
428.954	11240.92
429.172	11286.56
429.391	11340.56
429.61	11386.74
429.828	11435.27
430.047	11485.18
430.265	11532.56
430.484	11577.82
430.703	11625.02
430.921	11673.56
431.14	11713.63
431.358	11757.12
431.577	11802.92
431.795	11844
432.014	11894.87
432.232	11941.31
432.451	11989.63
432.669	12038.72
432.887	12086.98
433.106	12132.58
433.324	12177.16
433.543	12229.67
433.761	12279.92
433.979	12333.91
434.198	12381.14
434.416	12427.07
434.634	12479.23
434.853	12530.38
435.071	12579.03
435.289	12624.91
435.507	12672.74
435.726	12718.34
435.944	12764.29
436.162	12809.27
436.38	12849.27
436.598	12897.11
436.817	12938.62
437.035	12985.42
437.253	13026.8
437.471	13073.03
437.689	13116.82
437.907	13161.63
438.125	13212.2
438.343	13260.4
438.561	13314.89
438.78	13366.09
438.998	13417.76
439.216	13468.36
439.434	13508.71
439.652	13566.72
439.869	13618
440.087	13674.25
440.305	13722.78
440.523	13771.16
440.741	13819.22
440.959	13861.43
441.177	13911.65
441.395	13958.34
441.613	14002.23
441.831	14056.49
442.048	14096.54
442.266	14137.52
442.484	14186.49
442.702	14236.71
442.919	14280.23
443.137	14330.8
443.355	14382.69
443.573	14432.12
443.79	14480.58
444.008	14533.25
444.226	14585.4
444.443	14636.32
444.661	14683.49
444.879	14726.78
445.096	14775.42
445.314	14830.45
445.532	14875.56
445.749	14919.56
445.967	14961.07
446.184	15005.45
446.402	15053.87
446.619	15098.87
446.837	15142.58
447.054	15193.29
447.272	15240.05
447.489	15287.54
447.707	15332.36
447.924	15379.11
448.141	15426.6
448.359	15476.45
448.576	15528.72
448.794	15576.05
449.011	15619.14
449.228	15670.83
449.446	15720.14
449.663	15774.18
449.88	15816.83
450.098	15864.2
450.315	15912.02
450.532	15955.76
450.749	16009.98
450.967	16055.82
451.184	16104.56
451.401	16158.09
451.618	16205.8
451.835	16252.56
452.052	16296.56
452.27	16348.31
452.487	16395.4
452.704	16443.05
452.921	16492.91
453.138	16535.02
453.355	16577.85
453.572	16625.09
453.789	16665.89
454.006	16705.43
454.223	16750.89
454.44	16796.69
454.657	16844.42
454.874	16892.03
455.091	16935.54
455.308	16986.14
