Data from test1_MAYP1115451__0__10-14-37-776.txt Node

Date: Wed Jun 12 10:14:37 MDT 2024
User: Modes Lab
Spectrometer: MAYP111545
Trigger mode: 0
Integration Time (sec): 8.000000E-3
Scans to average: 5
Electric dark correction enabled: true
Nonlinearity correction enabled: false
Boxcar width: 5
XAxis mode: Wavelengths
Number of Pixels in Spectrum: 2068
>>>>>Begin Spectral Data<<<<<
165.214	162.23
165.449	161.5
165.683	172.32
165.918	180.6
166.152	186.85
166.387	191.98
166.621	123.67
166.856	161.83
167.09	180.98
167.325	204.88
167.559	221.83
167.794	236.05
168.028	243.79
168.263	244.19
168.497	243.92
168.732	245.05
168.966	245.83
169.2	248.03
169.435	250.76
169.669	251.65
169.903	252.59
170.138	252.98
170.372	255.1
170.606	256.68
170.841	257.98
171.075	260.03
171.309	261.94
171.544	263.3
171.778	264.12
172.012	265.05
172.246	267.38
172.48	269.16
172.715	272.63
172.949	274.41
173.183	276.81
173.417	277.99
173.651	279.99
173.885	280.54
174.119	280.78
174.354	281.36
174.588	281.58
174.822	281.14
175.056	281.16
175.29	280.43
175.524	279.67
175.758	279.23
175.992	279.52
176.226	279.08
176.46	279.98
176.694	281.94
176.928	282.54
177.162	283.63
177.396	284.03
177.63	285.36
177.864	286.81
178.097	288.5
178.331	288.85
178.565	290.07
178.799	291.98
179.033	292.65
179.267	292.88
179.5	293.92
179.734	295.1
179.968	297.32
180.202	297.7
180.436	298.45
180.669	299.36
180.903	301.9
181.137	302.19
181.371	302.56
181.604	303.45
181.838	305.19
182.072	306.3
182.305	307.14
182.539	307.45
182.772	308.85
183.006	309.68
183.24	310.65
183.473	313.21
183.707	314.81
183.94	316.05
184.174	316.94
184.408	317.99
184.641	318.59
184.875	319.47
185.108	320.88
185.342	322.16
185.575	323.9
185.808	324.68
186.042	323.67
186.275	324.58
186.509	325.67
186.742	326.74
186.976	328.19
187.209	329.45
187.442	332.07
187.676	332.76
187.909	334.59
188.142	335.56
188.376	336.59
188.609	338.52
188.842	339.99
189.076	340.87
189.309	342.85
189.542	343.81
189.775	347.41
190.009	347.59
190.242	349.67
190.475	351.47
190.708	353.28
190.941	355.34
191.174	356.72
191.408	359.08
191.641	361.28
191.874	363.32
192.107	365.98
192.34	366.72
192.573	368.12
192.806	370.88
193.039	372.25
193.272	373.88
193.505	375.68
193.738	377.07
193.971	379.3
194.204	382.07
194.437	382.78
194.67	383.99
194.903	385.39
195.136	387.65
195.369	389.12
195.602	390.85
195.835	391.98
196.068	395.56
196.301	397.27
196.533	399.07
196.766	400.03
196.999	403.03
197.232	405.52
197.465	407.28
197.698	408.98
197.93	410.79
198.163	411.88
198.396	415.08
198.629	415.78
198.861	418.21
199.094	420.27
199.327	422.36
199.559	424.67
199.792	427.23
200.025	429.21
200.257	432.56
200.49	434.78
200.723	438.65
200.955	440.39
201.188	443.34
201.42	445.59
201.653	447.5
201.886	449.23
202.118	451.54
202.351	452.78
202.583	457.12
202.816	458.5
203.048	461.5
203.281	462.5
203.513	464.32
203.745	466.94
203.978	469.54
204.21	472.32
204.443	475.87
204.675	478.18
204.907	480.28
205.14	481.85
205.372	485.03
205.605	486.38
205.837	489.19
206.069	492.9
206.302	493.5
206.534	495.83
206.766	497.59
206.998	498.7
207.231	499.87
207.463	502.16
207.695	504.34
207.927	506.47
208.159	509.52
208.392	512.16
208.624	514.18
208.856	517.18
209.088	519.3
209.32	521.7
209.552	524.47
209.784	527.27
210.017	529.19
210.249	530.94
210.481	533.25
210.713	534.52
210.945	537.12
211.177	538.3
211.409	540.68
211.641	541.52
211.873	543.52
212.105	545.27
212.337	547.07
212.569	549.03
212.801	551.65
213.033	553.99
213.264	556.25
213.496	557.5
213.728	559.05
213.96	559.83
214.192	561.92
214.424	563.5
214.656	565.67
214.887	567.03
215.119	568.7
215.351	569.83
215.583	571.47
215.815	573.79
216.046	575.85
216.278	576.96
216.51	579.45
216.741	581.65
216.973	583.83
217.205	584.65
217.436	587.85
217.668	590.98
217.9	592.28
218.131	592.19
218.363	593.7
218.595	594.63
218.826	597.18
219.058	599.03
219.289	599.96
219.521	600.48
219.752	601.9
219.984	601.78
220.215	601.99
220.447	603.25
220.678	603.48
220.91	604.18
221.141	606.12
221.373	607.59
221.604	607.96
221.836	611.05
222.067	613.08
222.298	615.21
222.53	616.58
222.761	617.43
222.993	618.14
223.224	620.74
223.455	621.7
223.686	620.72
223.918	621.08
224.149	621.87
224.38	622.56
224.612	622.18
224.843	622.28
225.074	622.87
225.305	623.48
225.536	625.1
225.768	627.38
225.999	627.96
226.23	628.83
226.461	628.39
226.692	629.96
226.923	628.9
227.155	632.27
227.386	633.47
227.617	633.59
227.848	633.39
228.079	634.68
228.31	633.92
228.541	634.36
228.772	635.92
229.003	636.9
229.234	636.3
229.465	637.5
229.696	635.41
229.927	635.23
230.158	636.12
230.389	635.52
230.62	634.63
230.85	634.72
231.081	634.68
231.312	634.19
231.543	635.34
231.774	634.27
232.005	633.38
232.236	632.99
232.466	632.63
232.697	632.43
232.928	633.81
233.159	634.19
233.389	633.9
233.62	635.5
233.851	636.05
234.082	636.36
234.312	636.07
234.543	637.16
234.774	636.58
235.004	636.98
235.235	637.1
235.466	635.99
235.696	635.16
235.927	634.81
236.157	633.98
236.388	632.99
236.618	632.72
236.849	633.28
237.08	631.79
237.31	633.21
237.541	633.28
237.771	631.52
238.002	630.9
238.232	630.32
238.463	630.18
238.693	628.87
238.923	628.43
239.154	627.81
239.384	627.34
239.615	627.14
239.845	625.58
240.075	625.12
240.306	626.52
240.536	628.3
240.766	628.1
240.997	628.7
241.227	629.12
241.457	628.19
241.687	627.47
241.918	629.54
242.148	629.32
242.378	629.03
242.608	626.81
242.839	625.48
243.069	624.67
243.299	623.23
243.529	622.76
243.759	620.92
243.989	622.01
244.22	620.76
244.45	618.56
244.68	616.88
244.91	617.9
245.14	618.28
245.37	617.74
245.6	617.34
245.83	617.34
246.06	615.41
246.29	616.18
246.52	614.47
246.75	613.25
246.98	612.78
247.21	612.76
247.44	611.41
247.67	611.87
247.9	611.34
248.13	610.7
248.359	609.98
248.589	611.03
248.819	609.85
249.049	610.5
249.279	611.63
249.509	610.79
249.738	612.3
249.968	611.27
250.198	609.41
250.428	610.19
250.657	609.07
250.887	608.78
251.117	608.01
251.347	608.1
251.576	606.85
251.806	605.94
252.036	604.54
252.265	603.12
252.495	602.3
252.725	602.5
252.954	601.56
253.184	601.1
253.413	600.85
253.643	599.3
253.873	597.67
254.102	597.5
254.332	596.72
254.561	597.14
254.791	596.65
255.02	596.74
255.25	596.1
255.479	594.39
255.708	594.21
255.938	592.85
256.167	591.68
256.397	591.18
256.626	590.19
256.856	589.96
257.085	589.47
257.314	589.14
257.544	587.63
257.773	586.81
258.002	587.67
258.232	586.87
258.461	588.68
258.69	588.92
258.919	588.03
259.149	587.14
259.378	587.21
259.607	586.67
259.836	585.76
260.065	585.21
260.295	584.3
260.524	583.21
260.753	581.98
260.982	579.59
261.211	578.21
261.44	577.43
261.669	576.83
261.899	575.43
262.128	573.68
262.357	571.56
262.586	571.92
262.815	572.16
263.044	571.68
263.273	574.07
263.502	573.83
263.731	573.28
263.96	572.59
264.189	571.1
264.418	570.52
264.646	569.92
264.875	570.14
265.104	568.63
265.333	566.81
265.562	565.52
265.791	561.21
266.02	559.98
266.249	558.88
266.477	557.56
266.706	557.65
266.935	555.45
267.164	555.78
267.393	554.47
267.621	554.01
267.85	553.32
268.079	552.68
268.307	552.19
268.536	550.03
268.765	550.45
268.993	550.85
269.222	549.9
269.451	550.9
269.679	549.08
269.908	549.3
270.137	547.99
270.365	548.81
270.594	548.18
270.822	549.16
271.051	550.12
271.279	549.27
271.508	549.72
271.736	552.03
271.965	551.56
272.193	553.18
272.422	553.61
272.65	553.85
272.879	551.41
273.107	551.68
273.336	550.45
273.564	550.96
273.792	550.74
274.021	549.48
274.249	546.52
274.477	545.81
274.706	544.9
274.934	542.79
275.162	541.74
275.391	542.47
275.619	539.85
275.847	537.98
276.075	535.7
276.304	534.27
276.532	532.92
276.76	532.45
276.988	531.52
277.216	528.9
277.445	528.28
277.673	527.81
277.901	527.25
278.129	527.81
278.357	527.72
278.585	527.45
278.813	527.32
279.041	527.88
279.269	527.16
279.497	527.03
279.725	527.85
279.954	528.12
280.182	528.39
280.41	527.38
280.637	527.27
280.865	528.28
281.093	528.43
281.321	528.1
281.549	527.19
281.777	527.39
282.005	525.67
282.233	525.59
282.461	524.85
282.689	523.03
282.916	523.65
283.144	521.99
283.372	520.08
283.6	519.08
283.828	517.74
284.055	515.68
284.283	514.05
284.511	514.36
284.739	512.28
284.966	512.38
285.194	511.94
285.422	509.78
285.649	509.27
285.877	509.43
286.105	509.59
286.332	509.23
286.56	510.43
286.788	510.54
287.015	510.41
287.243	511.47
287.47	509.34
287.698	509.39
287.925	509.48
288.153	509.79
288.381	509.58
288.608	508.32
288.836	508.19
289.063	506.28
289.29	504.78
289.518	504.72
289.745	503.98
289.973	503.39
290.2	502.25
290.428	502.25
290.655	501.39
290.882	500.65
291.11	500.14
291.337	499.39
291.564	499.18
291.792	498.07
292.019	497.07
292.246	495.81
292.473	495.27
292.701	496.03
292.928	495.43
293.155	495.43
293.382	495.08
293.61	495.38
293.837	494.72
294.064	494.05
294.291	494.76
294.518	493.36
294.745	491.98
294.972	491.83
295.2	490.18
295.427	489.1
295.654	487.72
295.881	486.74
296.108	485.1
296.335	484.34
296.562	484.23
296.789	484.85
297.016	484.18
297.243	483.58
297.47	481.94
297.697	481.18
297.924	480.85
298.151	480.21
298.378	479.9
298.604	480.1
298.831	479.3
299.058	478.99
299.285	478.21
299.512	477.01
299.739	477.7
299.966	478.58
300.192	478.68
300.419	478.68
300.646	478.1
300.873	477.03
301.099	475.05
301.326	476.03
301.553	475.43
301.78	475.08
302.006	475.01
302.233	474.65
302.46	474.07
302.686	473.79
302.913	471.43
303.14	471.18
303.366	470.1
303.593	470.61
303.819	470.99
304.046	469.87
304.272	468.05
304.499	469.3
304.725	468.96
304.952	467.76
305.179	466.81
305.405	468.41
305.631	467.92
305.858	468.38
306.084	467.59
306.311	466.21
306.537	466.59
306.764	466.83
306.99	465.12
307.216	465.12
307.443	465.68
307.669	464.74
307.895	463.67
308.122	462.72
308.348	462.43
308.574	462.23
308.801	461.28
309.027	461.39
309.253	460.79
309.479	460.76
309.706	459.87
309.932	458.67
310.158	458.3
310.384	458.47
310.61	459.48
310.837	459.68
311.063	460.96
311.289	460.85
311.515	460.65
311.741	460.34
311.967	460.54
312.193	461.07
312.419	461.98
312.645	462.36
312.871	461.96
313.097	460.99
313.323	461.19
313.549	459.85
313.775	459.9
314.001	459.78
314.227	458.81
314.453	458.34
314.679	456.65
314.905	456.5
315.131	456.81
315.357	456.48
315.583	457.54
315.809	456.96
316.034	457.76
316.26	458.25
316.486	458.81
316.712	460.98
316.938	461.68
317.163	462.88
317.389	464.36
317.615	466.16
317.841	467.16
318.066	467.98
318.292	469.14
318.518	468.83
318.743	468.96
318.969	469.34
319.195	469.96
319.42	470.12
319.646	470.98
319.872	470.85
320.097	471.81
320.323	472.08
320.548	473.61
320.774	474.94
320.999	476.48
321.225	478.63
321.45	480.23
321.676	480.36
321.901	481.28
322.127	482.83
322.352	485.38
322.578	486.16
322.803	488.7
323.029	489.79
323.254	491.18
323.479	492.79
323.705	493.47
323.93	494.68
324.155	497.1
324.381	499.68
324.606	501.16
324.831	502.45
325.057	504.36
325.282	506.07
325.507	507.68
325.732	510.08
325.958	512.65
326.183	516.21
326.408	518.03
326.633	522.7
326.858	525.56
327.084	528.39
327.309	531.36
327.534	533.99
327.759	536.79
327.984	540.25
328.209	541.67
328.434	545.08
328.659	547.76
328.884	551.81
329.109	553.12
329.334	557.07
329.559	560.58
329.784	563.81
330.009	567.85
330.234	571.5
330.459	575.18
330.684	580.36
330.909	582.98
331.134	585.74
331.359	588.99
331.584	592.99
331.809	596.45
332.034	601.47
332.259	605.5
332.483	609.32
332.708	614.36
332.933	619.52
333.158	624.12
333.383	629.01
333.607	635.21
333.832	640.47
334.057	646.3
334.282	650.76
334.506	655.63
334.731	660.59
334.956	666.48
335.18	672.16
335.405	676.5
335.63	680.83
335.854	687.1
336.079	692.68
336.303	697.99
336.528	703.18
336.753	708.87
336.977	714.7
337.202	721.14
337.426	727.19
337.651	732.9
337.875	738.39
338.1	746.27
338.324	753.9
338.549	759.79
338.773	767.45
338.997	773.63
339.222	781.56
339.446	787.52
339.671	796.03
339.895	802.67
340.119	811.27
340.344	819.83
340.568	827.14
340.792	833.25
341.017	841.99
341.241	848.63
341.465	858.07
341.689	866.39
341.914	875.07
342.138	881.03
342.362	888.25
342.586	894.23
342.811	904.36
343.035	912.28
343.259	922.43
343.483	930.41
343.707	939.88
343.931	949.45
344.155	958.74
344.38	969.9
344.604	980.94
344.828	991.01
345.052	1001.25
345.276	1009.39
345.5	1019.18
345.724	1027.96
345.948	1036.78
346.172	1046.7
346.396	1054.48
346.62	1065.41
346.844	1074.38
347.068	1084.67
347.292	1096.39
347.515	1107.78
347.739	1120.21
347.963	1131.52
348.187	1141.05
348.411	1152.43
348.635	1162.34
348.859	1173.12
349.082	1182.18
349.306	1192.28
349.53	1201.79
349.754	1212.16
349.977	1220.65
350.201	1227.83
350.425	1239.67
350.649	1250.88
350.872	1262.61
351.096	1275.38
351.32	1283.88
351.543	1297.19
351.767	1308.36
351.99	1321.72
352.214	1332.19
352.438	1344.99
352.661	1356.16
352.885	1366.9
353.108	1378.54
353.332	1390.34
353.555	1402.08
353.779	1417.18
354.002	1428.56
354.226	1441.08
354.449	1452.07
354.673	1463.67
354.896	1474.67
355.12	1489.28
355.343	1499.21
355.566	1513.74
355.79	1525.38
356.013	1537.81
356.237	1550.08
356.46	1561.48
356.683	1573.88
356.907	1586.78
357.13	1601.18
357.353	1614.1
357.576	1623.38
357.8	1638.72
358.023	1649.59
358.246	1662.63
358.469	1673.21
358.693	1685.56
358.916	1699.61
359.139	1712.07
359.362	1723.5
359.585	1735.74
359.808	1748.63
360.031	1764.7
360.255	1776.87
360.478	1789.9
360.701	1804.1
360.924	1818.3
361.147	1830.21
361.37	1841.34
361.593	1854.96
361.816	1866.99
362.039	1881.07
362.262	1895.81
362.485	1910.1
362.708	1926.67
362.931	1941.01
363.154	1952.79
363.377	1966.19
363.599	1983.21
363.822	1997.72
364.045	2011.08
364.268	2028.18
364.491	2042.65
364.714	2058.05
364.936	2072.36
365.159	2083.43
365.382	2097.38
365.605	2112.08
365.828	2130.83
366.05	2144.28
366.273	2159.1
366.496	2177.56
366.718	2191.36
366.941	2206.68
367.164	2219.72
367.386	2235.59
367.609	2250.56
367.832	2267.52
368.054	2285.3
368.277	2299.65
368.5	2316.99
368.722	2331.83
368.945	2346.79
369.167	2365.9
369.39	2382.54
369.612	2401.88
369.835	2417.81
370.057	2436.18
370.28	2452.52
370.502	2467.76
370.725	2482.68
370.947	2498.67
371.169	2518.61
371.392	2537.74
371.614	2551.05
371.837	2566.7
372.059	2582.43
372.281	2598.98
372.504	2616.88
372.726	2633.81
372.948	2653.81
373.171	2673.63
373.393	2691.87
373.615	2707.12
373.837	2721.52
374.06	2741.59
374.282	2760.3
374.504	2778.1
374.726	2798.27
374.948	2817.19
375.17	2837.87
375.393	2857.1
375.615	2877.1
375.837	2895.32
376.059	2918.41
376.281	2938.63
376.503	2956.34
376.725	2976.9
376.947	2997.63
377.169	3015.07
377.391	3035.25
377.613	3055.14
377.835	3074.9
378.057	3095.07
378.279	3115.48
378.501	3135.54
378.723	3154.94
378.945	3177.43
379.167	3198.88
379.389	3221.74
379.611	3247.85
379.833	3271.72
380.054	3293.65
380.276	3321.12
380.498	3342.98
380.72	3370.18
380.942	3395.34
381.163	3423.76
381.385	3449.59
381.607	3476.48
381.829	3499.59
382.05	3524.45
382.272	3548.41
382.494	3574.36
382.716	3596.63
382.937	3623.16
383.159	3650.98
383.381	3678.56
383.602	3703.81
383.824	3727.76
384.045	3754.36
384.267	3784.92
384.488	3811.59
384.71	3837.85
384.932	3862.78
385.153	3889.28
385.375	3916.76
385.596	3939.74
385.818	3962.32
386.039	3987.61
386.261	4020.25
386.482	4047.87
386.703	4075.14
386.925	4100.87
387.146	4129.43
387.368	4160.76
387.589	4190.76
387.81	4222.94
388.032	4255.14
388.253	4286.38
388.474	4315.87
388.696	4342.67
388.917	4370.41
389.138	4397.58
389.359	4430.16
389.581	4461.1
389.802	4493.41
390.023	4520.78
390.244	4546.59
390.465	4575.27
390.687	4605.07
390.908	4638.58
391.129	4672.3
391.35	4703.3
391.571	4738.1
391.792	4768.16
392.013	4796.68
392.234	4824.34
392.455	4858.14
392.677	4889.65
392.898	4920.38
393.119	4954.27
393.34	4986.32
393.561	5016.05
393.782	5051.1
394.003	5082.47
394.223	5114.39
394.444	5152.38
394.665	5186.87
394.886	5224.19
395.107	5257.99
395.328	5295.99
395.549	5328.96
395.77	5363.05
395.99	5398.38
396.211	5430.18
396.432	5464.92
396.653	5499.96
396.874	5533.03
397.094	5570.48
397.315	5598.9
397.536	5638.21
397.757	5671.54
397.977	5705.81
398.198	5739.74
398.419	5772.9
398.639	5808.63
398.86	5841.81
399.081	5874.85
399.301	5911.18
399.522	5944.08
399.742	5979.48
399.963	6007.48
400.184	6043.68
400.404	6080.03
400.625	6113.39
400.845	6149.76
401.066	6183.5
401.286	6217.59
401.507	6253.28
401.727	6287.07
401.948	6322.85
402.168	6359.92
402.388	6399.99
402.609	6432.28
402.829	6468.7
403.05	6503.81
403.27	6540.63
403.49	6577.16
403.711	6612.21
403.931	6647.98
404.151	6681.87
404.372	6714.72
404.592	6750.72
404.812	6783.34
405.032	6816.18
405.253	6849.32
405.473	6885.74
405.693	6919.41
405.913	6953.05
406.133	6986.99
406.353	7024.83
406.574	7063.68
406.794	7099.23
407.014	7135.43
407.234	7173.25
407.454	7214.1
407.674	7248.72
407.894	7285.59
408.114	7321.43
408.334	7360.16
408.554	7402.88
408.774	7439.03
408.994	7473.78
409.214	7513.38
409.434	7546.38
409.654	7583.81
409.874	7620.14
410.094	7659.7
410.314	7698.18
410.534	7735.27
410.754	7776.85
410.974	7815.21
411.193	7852.36
411.413	7893.72
411.633	7935.12
411.853	7974.36
412.073	8014.65
412.292	8051.01
412.512	8091.32
412.732	8133.16
412.952	8176.12
413.171	8211.96
413.391	8253.39
413.611	8296.79
413.831	8335.79
414.05	8376.43
414.27	8418.01
414.489	8459.87
414.709	8506.03
414.929	8547.88
415.148	8589.5
415.368	8629.45
415.587	8673.59
415.807	8710.43
416.026	8753.23
416.246	8800.16
416.465	8843.68
416.685	8890.63
416.904	8934.92
417.124	8979.05
417.343	9021.99
417.563	9063.45
417.782	9113.5
418.002	9159.52
418.221	9206.3
418.44	9249.54
418.66	9292.65
418.879	9335.48
419.098	9377.48
419.318	9421.67
419.537	9466.7
419.756	9512.43
419.976	9558.28
420.195	9596.87
420.414	9639.45
420.633	9683.47
420.853	9728.05
421.072	9770.72
421.291	9810.98
421.51	9853.19
421.729	9894.9
421.948	9934.68
422.168	9976.56
422.387	10022.28
422.606	10066.12
422.825	10109.78
423.044	10149.94
423.263	10193.7
423.482	10239.5
423.701	10285.01
423.92	10331.52
424.139	10377.92
424.358	10421.21
424.577	10464.96
424.796	10511.48
425.015	10565.1
425.234	10610.08
425.453	10664.19
425.672	10709.23
425.891	10752.45
426.11	10797.3
426.328	10844.07
426.547	10888.43
426.766	10932.39
426.985	10982.14
427.204	11027.56
427.422	11067.25
427.641	11115.72
427.86	11157.79
428.079	11206.83
428.297	11256.34
428.516	11304.05
428.735	11354.39
428.954	11400.07
429.172	11455.83
429.391	11504.43
429.61	11552.36
429.828	11601.76
430.047	11648.19
430.265	11696.79
430.484	11742.25
430.703	11788.43
430.921	11835.39
431.14	11879.54
431.358	11925.79
431.577	11965.67
431.795	12014.85
432.014	12054.65
432.232	12101.38
432.451	12152.1
432.669	12197.48
432.887	12246.48
433.106	12293.45
433.324	12347.1
433.543	12397.18
433.761	12449.12
433.979	12504.79
434.198	12548.27
434.416	12597.19
434.634	12645.3
434.853	12690.21
435.071	12739.34
435.289	12789.32
435.507	12830.52
435.726	12872.59
435.944	12921.78
436.162	12963.9
436.38	13004.41
436.598	13051.3
436.817	13100.98
437.035	13147.32
437.253	13196.34
437.471	13245.32
437.689	13291.18
437.907	13343.05
438.125	13386.96
438.343	13432.03
438.561	13480.03
438.78	13532.59
438.998	13583.36
439.216	13634.78
439.434	13685.41
439.652	13729.92
439.869	13773.45
440.087	13822.1
440.305	13872.96
440.523	13931.01
440.741	13972.79
440.959	14022.74
441.177	14067.05
441.395	14111.9
441.613	14156.78
441.831	14199.74
442.048	14250.18
442.266	14300.03
442.484	14348.79
442.702	14394.85
442.919	14440.74
443.137	14501.14
443.355	14552.68
443.573	14603.99
443.79	14653.99
444.008	14701.63
444.226	14751.23
444.443	14798.59
444.661	14850.39
444.879	14895.25
445.096	14941.96
445.314	14989.28
445.532	15029.41
445.749	15076.14
445.967	15124.94
446.184	15177.14
446.402	15230.72
446.619	15275.88
446.837	15322.16
447.054	15366.14
447.272	15411.68
447.489	15460.7
447.707	15508.74
447.924	15560.05
448.141	15610.39
448.359	15659.1
448.576	15703.59
448.794	15751.99
449.011	15806.83
449.228	15851.32
449.446	15900.45
449.663	15952.03
449.88	16007.59
450.098	16048.65
450.315	16093.41
450.532	16142.21
450.749	16195.9
450.967	16239.76
451.184	16288.81
451.401	16336.81
451.618	16390.94
451.835	16440.16
452.052	16489.87
452.27	16533.36
452.487	16589.99
452.704	16637.72
452.921	16679.94
453.138	16725.07
453.355	16776.14
453.572	16824.23
453.789	16868.5
454.006	16920.07
454.223	16971.43
454.44	17016.99
454.657	17062.19
