Data from test1_MAYP1115451__64__10-14-59-146.txt Node

Date: Wed Jun 12 10:14:59 MDT 2024
User: Modes Lab
Spectrometer: MAYP111545
Trigger mode: 0
Integration Time (sec): 8.000000E-3
Scans to average: 5
Electric dark correction enabled: true
Nonlinearity correction enabled: false
Boxcar width: 5
XAxis mode: Wavelengths
Number of Pixels in Spectrum: 2068
>>>>>Begin Spectral Data<<<<<
165.214	162.4
165.449	163.69
165.683	172.56
165.918	182.14
166.152	188.39
166.387	193.05
166.621	125.36
166.856	163.85
167.09	181.78
167.325	205.47
167.559	222.05
167.794	237.29
168.028	244.31
168.263	245.09
168.497	245.74
168.732	246.12
168.966	247.34
169.2	249.34
169.435	251.43
169.669	253.89
169.903	255.51
170.138	257.22
170.372	258.45
170.606	260.56
170.841	262.43
171.075	262.52
171.309	264.51
171.544	266.45
171.778	268.03
172.012	269.62
172.246	270.74
172.48	272.58
172.715	274.54
172.949	275.54
173.183	276.16
173.417	278.23
173.651	279.63
173.885	280.31
174.119	281.22
174.354	281.11
174.588	280.36
174.822	281.07
175.056	281.09
175.29	280.85
175.524	280.16
175.758	281.2
175.992	281.85
176.226	281.38
176.46	282.51
176.694	283.23
176.928	284.63
177.162	286.38
177.396	287.78
177.63	288.98
177.864	290.22
178.097	292.25
178.331	292.03
178.565	292.25
178.799	293.87
179.033	294.87
179.267	294.69
179.5	295.34
179.734	295.89
179.968	295.71
180.202	295.23
180.436	296.03
180.669	296.16
180.903	297.8
181.137	299.16
181.371	300.6
181.604	301.4
181.838	302.87
182.072	304.29
182.305	306.4
182.539	307.72
182.772	309.96
183.006	311.2
183.24	311.89
183.473	315.94
183.707	316.63
183.94	316.8
184.174	318.11
184.408	319.2
184.641	319.91
184.875	320.69
185.108	323
185.342	323.83
185.575	324.34
185.808	326.22
186.042	324.38
186.275	325.74
186.509	327.45
186.742	329.11
186.976	330
187.209	331.71
187.442	333.31
187.676	333.02
187.909	334.91
188.142	337.31
188.376	338.76
188.609	340.51
188.842	342.03
189.076	343.78
189.309	344.52
189.542	347.27
189.775	349.07
190.009	349.96
190.242	352.47
190.475	354.51
190.708	355.47
190.941	357.8
191.174	359.78
191.408	361.52
191.641	362.98
191.874	364.34
192.107	365.45
192.34	367.32
192.573	369.45
192.806	371.31
193.039	371.56
193.272	373.92
193.505	374.22
193.738	375.76
193.971	376.89
194.204	379.36
194.437	381.42
194.67	383.4
194.903	384.98
195.136	386.45
195.369	387.92
195.602	389.94
195.835	391.6
196.068	395.27
196.301	396.29
196.533	398.42
196.766	399.94
196.999	403.62
197.232	405.38
197.465	407.31
197.698	410.22
197.93	412.25
198.163	414.98
198.396	417.69
198.629	419.11
198.861	421.65
199.094	424.07
199.327	426.49
199.559	427.12
199.792	429.23
200.025	430.8
200.257	432.72
200.49	434.94
200.723	436.78
200.955	439.31
201.188	441.38
201.42	443.87
201.653	446.94
201.886	449.02
202.118	451.78
202.351	453.72
202.583	456
202.816	458.09
203.048	460.16
203.281	462.45
203.513	464.38
203.745	467.18
203.978	469.05
204.21	470.31
204.443	472.14
204.675	473.67
204.907	476.96
205.14	480.54
205.372	482.32
205.605	485.22
205.837	487.63
206.069	489.56
206.302	490.71
206.534	493.02
206.766	495.6
206.998	498.32
207.231	501.45
207.463	503.31
207.695	504.07
207.927	506.36
208.159	507.4
208.392	509.2
208.624	511.78
208.856	515.16
209.088	517.62
209.32	518.96
209.552	521.69
209.784	524.38
210.017	527.92
210.249	530.2
210.481	531.89
210.713	534.51
210.945	537.54
211.177	539.14
211.409	540.27
211.641	541.63
211.873	544.72
212.105	545.91
212.337	546.63
212.569	547.14
212.801	549.02
213.033	550.87
213.264	553.47
213.496	555.49
213.728	557.4
213.96	558.94
214.192	562.12
214.424	562.96
214.656	565.16
214.887	567.32
215.119	571.14
215.351	573.27
215.583	575.34
215.815	576.96
216.046	577.2
216.278	578.94
216.51	581.69
216.741	583.67
216.973	584.71
217.205	584.91
217.436	587.02
217.668	588.07
217.9	589.87
218.131	591.72
218.363	592.29
218.595	595.32
218.826	596.94
219.058	597.18
219.289	597.82
219.521	600.51
219.752	602.36
219.984	601.94
220.215	601.83
220.447	602.02
220.678	602.29
220.91	604.45
221.141	604.07
221.373	605.52
221.604	607.02
221.836	607.49
222.067	608.49
222.298	609.87
222.53	612.09
222.761	613.02
222.993	614.67
223.224	616.85
223.455	618.03
223.686	619.34
223.918	620.82
224.149	621.6
224.38	623.76
224.612	623.82
224.843	625.29
225.074	626.4
225.305	627.18
225.536	627.71
225.768	629.11
225.999	630.31
226.23	631.22
226.461	631.36
226.692	631.94
226.923	631.34
227.155	633.51
227.386	634.65
227.617	634.69
227.848	635.18
228.079	636.65
228.31	636.42
228.541	635.47
228.772	635.65
229.003	634.94
229.234	636.67
229.465	637.32
229.696	637.56
229.927	637.09
230.158	637.4
230.389	637.49
230.62	637.91
230.85	637.87
231.081	637.54
231.312	638.16
231.543	637.96
231.774	637.4
232.005	636.74
232.236	635.74
232.466	635.34
232.697	635.67
232.928	635.09
233.159	634.12
233.389	633.89
233.62	635
233.851	635.22
234.082	634.67
234.312	634.45
234.543	634.85
234.774	634.36
235.004	634.29
235.235	634.02
235.466	635.09
235.696	635.98
235.927	635.65
236.157	634.8
236.388	633.85
236.618	634.89
236.849	634.14
237.08	635.02
237.31	635.58
237.541	634.32
237.771	634.27
238.002	634.27
238.232	632.96
238.463	632.69
238.693	632.78
238.923	631.91
239.154	631.03
239.384	631
239.615	629.23
239.845	628.65
240.075	630.07
240.306	628.56
240.536	627.02
240.766	626.29
240.997	627.25
241.227	628.29
241.457	628.96
241.687	630
241.918	630.16
242.148	630
242.378	629.18
242.608	628.25
242.839	627.54
243.069	627.89
243.299	626.98
243.529	626.62
243.759	625.07
243.989	623.96
244.22	623.22
244.45	621.94
244.68	621.29
244.91	620.23
245.14	619.94
245.37	620.54
245.6	619.36
245.83	620.36
246.06	619.32
246.29	618.58
246.52	618.76
246.75	617.49
246.98	618.27
247.21	617.62
247.44	617.72
247.67	616.98
247.9	616.98
248.13	617.45
248.359	617.16
248.589	615.45
248.819	614.6
249.049	613.23
249.279	612.36
249.509	611.32
249.738	610.36
249.968	609.6
250.198	607.52
250.428	607.07
250.657	606.03
250.887	604.12
251.117	604.2
251.347	603.47
251.576	602.91
251.806	602.83
252.036	602.74
252.265	602.8
252.495	603.29
252.725	603.83
252.954	602.23
253.184	602.38
253.413	602.74
253.643	602.52
253.873	601.52
254.102	600.74
254.332	600.27
254.561	599.98
254.791	599.82
255.02	598.16
255.25	597.58
255.479	597.07
255.708	595.07
255.938	594.52
256.167	592.83
256.397	592.36
256.626	592.6
256.856	592.38
257.085	590.43
257.314	589.82
257.544	590.12
257.773	589.67
258.002	589.25
258.232	588.89
258.461	587.65
258.69	587.98
258.919	587.91
259.149	586.58
259.378	585.34
259.607	584.63
259.836	583.23
260.065	582.62
260.295	582.58
260.524	581.96
260.753	581.43
260.982	580.25
261.211	579.36
261.44	578.83
261.669	578.89
261.899	578.45
262.128	576.72
262.357	576.29
262.586	576
262.815	574.18
263.044	574.36
263.273	576.14
263.502	574.58
263.731	573.74
263.96	572.49
264.189	570.52
264.418	568.96
264.646	569.34
264.875	569.52
265.104	567.22
265.333	566.87
265.562	564.8
265.791	560.12
266.02	559.82
266.249	559.16
266.477	559.07
266.706	558.56
266.935	558.42
267.164	557.89
267.393	557.29
267.621	557.18
267.85	556.56
268.079	556.54
268.307	556.07
268.536	555.96
268.765	555.12
268.993	554.25
269.222	553.72
269.451	553.43
269.679	552.76
269.908	551.42
270.137	550.83
270.365	550.32
270.594	550.29
270.822	551.8
271.051	551.45
271.279	550.96
271.508	552.02
271.736	553.45
271.965	553.87
272.193	554.92
272.422	556.02
272.65	556.07
272.879	555.6
273.107	554.43
273.336	554.05
273.564	553.85
273.792	553.87
274.021	551.85
274.249	551.03
274.477	547.4
274.706	545
274.934	542.96
275.162	542.16
275.391	540.67
275.619	539.58
275.847	538.43
276.075	536.92
276.304	535.51
276.532	534.34
276.76	533.18
276.988	534.45
277.216	533.43
277.445	532.71
277.673	532.16
277.901	531.51
278.129	531.43
278.357	529.89
278.585	530.49
278.813	529.91
279.041	528.89
279.269	526.49
279.497	525.07
279.725	524.76
279.954	524.03
280.182	524.45
280.41	524.23
280.637	524.6
280.865	524.03
281.093	523.34
281.321	523.89
281.549	524.18
281.777	526.12
282.005	526.25
282.233	526.11
282.461	525.76
282.689	523.42
282.916	523.31
283.144	521.69
283.372	520.91
283.6	520.27
283.828	518.12
284.055	517.65
284.283	516.69
284.511	516.25
284.739	516.25
284.966	516.2
285.194	516.29
285.422	515.52
285.649	514.63
285.877	514.82
286.105	513.47
286.332	513.76
286.56	514.2
286.788	513.23
287.015	512.54
287.243	510.47
287.47	510.31
287.698	509.02
287.925	509.85
288.153	509.45
288.381	508.4
288.608	507.83
288.836	507.43
289.063	505.36
289.29	504.4
289.518	503.54
289.745	504.05
289.973	502.67
290.2	502.31
290.428	500.78
290.655	499.71
290.882	499.67
291.11	500.03
291.337	498.76
291.564	498.82
291.792	498.83
292.019	497.98
292.246	496.74
292.473	494.72
292.701	495.25
292.928	494.32
293.155	493.74
293.382	494.05
293.61	493
293.837	492.38
294.064	491.42
294.291	489.63
294.518	488.71
294.745	489.49
294.972	490.18
295.2	487.05
295.427	486.45
295.654	486.49
295.881	484.09
296.108	484.11
296.335	484.03
296.562	484.4
296.789	484.02
297.016	484.74
297.243	482.85
297.47	481.74
297.697	481.63
297.924	482.03
298.151	480.58
298.378	480.72
298.604	479.54
298.831	479.05
299.058	479.29
299.285	478.69
299.512	477.47
299.739	478.07
299.966	477.18
300.192	478.34
300.419	477.76
300.646	477.78
300.873	477.23
301.099	477.07
301.326	476.12
301.553	473.71
301.78	474.71
302.006	473.07
302.233	473.18
302.46	473.6
302.686	472.52
302.913	471.52
303.14	470.85
303.366	471.62
303.593	470.67
303.819	470.87
304.046	470.72
304.272	469.12
304.499	470.45
304.725	469.27
304.952	468.58
305.179	468.32
305.405	468.98
305.631	468.63
305.858	468.16
306.084	467.36
306.311	466.6
306.537	466.76
306.764	466.8
306.99	466.83
307.216	465.94
307.443	466.11
307.669	465.58
307.895	463.91
308.122	464
308.348	462.8
308.574	464
308.801	464.09
309.027	462.8
309.253	462.22
309.479	461.36
309.706	461.29
309.932	460.71
310.158	460.85
310.384	460.54
310.61	461.22
310.837	460.72
311.063	460.11
311.289	459.91
311.515	460.67
311.741	461.2
311.967	462.63
312.193	462.2
312.419	463.25
312.645	463.32
312.871	463.22
313.097	462.54
313.323	463
313.549	463.29
313.775	462.83
314.001	462.49
314.227	462.78
314.453	461.31
314.679	462.43
314.905	461.8
315.131	462.85
315.357	464.23
315.583	465.11
315.809	465.69
316.034	464.49
316.26	464.83
316.486	465.49
316.712	465.92
316.938	466.2
317.163	466.45
317.389	466.09
317.615	464.98
317.841	465.65
318.066	465.29
318.292	464.92
318.518	466.8
318.743	467.43
318.969	467.83
319.195	468.58
319.42	469.82
319.646	471.18
319.872	472.76
320.097	474.07
320.323	475.65
320.548	477.34
320.774	478.98
320.999	479.02
321.225	480.02
321.45	481.36
321.676	482.09
321.901	482.87
322.127	483.25
322.352	484.56
322.578	486.36
322.803	486.92
323.029	488.42
323.254	490.65
323.479	493.16
323.705	494.8
323.93	494.98
324.155	495.94
324.381	497.87
324.606	499.76
324.831	502.56
325.057	504.29
325.282	506.34
325.507	508.22
325.732	509.12
325.958	511.16
326.183	513.34
326.408	517.07
326.633	521.4
326.858	524.85
327.084	527.29
327.309	529.52
327.534	533.78
327.759	536.05
327.984	539.02
328.209	542.14
328.434	545.07
328.659	548.63
328.884	552.67
329.109	554.27
329.334	556.85
329.559	560.92
329.784	563.05
330.009	564.71
330.234	568.58
330.459	572.52
330.684	576.67
330.909	580.45
331.134	584.89
331.359	587.43
331.584	591.65
331.809	594.85
332.034	598.4
332.259	602.52
332.483	607.4
332.708	611.36
332.933	615.96
333.158	618.91
333.383	624.82
333.607	629.71
333.832	635.74
334.057	640.67
334.282	646.72
334.506	652.25
334.731	657.6
334.956	663.76
335.18	668.98
335.405	674.63
335.63	681.76
335.854	686.23
336.079	690.32
336.303	696.09
336.528	701.43
336.753	707.22
336.977	713.42
337.202	720.36
337.426	725.87
337.651	732.2
337.875	738.29
338.1	744.25
338.324	752.02
338.549	760.56
338.773	768.23
338.997	776.27
339.222	784.38
339.446	791.2
339.671	800
339.895	806.27
340.119	814.83
340.344	822.91
340.568	830.96
340.792	838.51
341.017	844.98
341.241	852.58
341.465	861.14
341.689	867.23
341.914	875.23
342.138	881.38
342.362	890.98
342.586	898.67
342.811	907
343.035	915.43
343.259	923.42
343.483	934.22
343.707	943.42
343.931	953.12
344.155	963.05
344.38	973.11
344.604	984.58
344.828	993.2
345.052	1001.29
345.276	1008.72
345.5	1017.49
345.724	1026.51
345.948	1034.54
346.172	1042.58
346.396	1051.85
346.62	1061.94
346.844	1070.56
347.068	1079.2
347.292	1091.71
347.515	1101.65
347.739	1114.69
347.963	1124.42
348.187	1135.76
348.411	1145.49
348.635	1156.82
348.859	1166.43
349.082	1176.82
349.306	1186.6
349.53	1196.42
349.754	1205.49
349.977	1218.65
350.201	1229.05
350.425	1241.72
350.649	1251.76
350.872	1264.94
351.096	1276.82
351.32	1287.94
351.543	1298.87
351.767	1311.69
351.99	1324.89
352.214	1336.2
352.438	1347.49
352.661	1357.78
352.885	1370.27
353.108	1382.42
353.332	1394.4
353.555	1403.22
353.779	1416.2
354.002	1428.07
354.226	1440.56
354.449	1452.32
354.673	1463.87
354.896	1475.31
355.12	1486.67
355.343	1498.34
355.566	1510.89
355.79	1522.65
356.013	1538.18
356.237	1549.94
356.46	1563.07
356.683	1574.94
356.907	1585.34
357.13	1599.4
357.353	1612.14
357.576	1625.78
357.8	1637.14
358.023	1650.52
358.246	1662.25
358.469	1673.43
358.693	1685.85
358.916	1699.36
359.139	1712.74
359.362	1728.58
359.585	1740.07
359.808	1752.22
360.031	1764.16
360.255	1778.6
360.478	1788.72
360.701	1803.03
360.924	1817.94
361.147	1831.42
361.37	1843.29
361.593	1856.89
361.816	1869.52
362.039	1884.71
362.262	1898.96
362.485	1914.12
362.708	1927.05
362.931	1943.09
363.154	1956.49
363.377	1969.74
363.599	1983.69
363.822	1996.74
364.045	2009.56
364.268	2022.27
364.491	2037.18
364.714	2050.14
364.936	2063.03
365.159	2078.67
365.382	2093.98
365.605	2108.89
365.828	2126.2
366.05	2141.05
366.273	2159.23
366.496	2175.38
366.718	2193.43
366.941	2207.94
367.164	2226.51
367.386	2241.74
367.609	2255.91
367.832	2271.34
368.054	2285.85
368.277	2298.58
368.5	2315.18
368.722	2330.34
368.945	2347.47
369.167	2362.6
369.39	2378.94
369.612	2393.98
369.835	2412.09
370.057	2432
370.28	2447.89
370.502	2465.43
370.725	2484.51
370.947	2502.2
371.169	2518.67
371.392	2535.98
371.614	2553.78
371.837	2570.82
372.059	2589.8
372.281	2606.96
372.504	2624
372.726	2642.63
372.948	2662.85
373.171	2680.51
373.393	2696.71
373.615	2714.22
373.837	2730.65
374.06	2748.4
374.282	2766.72
374.504	2784.18
374.726	2802.76
374.948	2820.83
375.17	2840.6
375.393	2857.98
375.615	2876.38
375.837	2897.22
376.059	2918.71
376.281	2936.85
376.503	2954.94
376.725	2975.78
376.947	2992.85
377.169	3014.05
377.391	3033.47
377.613	3053.51
377.835	3075.56
378.057	3096.92
378.279	3118.49
378.501	3140.36
378.723	3162.83
378.945	3186.76
379.167	3207.18
379.389	3235.42
379.611	3256.98
379.833	3279.91
380.054	3302.78
380.276	3324.47
380.498	3348.07
380.72	3374.8
380.942	3395.22
381.163	3420.38
381.385	3444.14
381.607	3470.74
381.829	3492.92
382.05	3521.07
382.272	3547.25
382.494	3573.98
382.716	3598.56
382.937	3624.78
383.159	3648.12
383.381	3678.94
383.602	3703.65
383.824	3729.76
384.045	3754.69
384.267	3781.87
384.488	3806.65
384.71	3832.43
384.932	3858.29
385.153	3889.54
385.375	3917.2
385.596	3942.96
385.818	3968.09
386.039	3997.8
386.261	4023.89
386.482	4053.05
386.703	4080.71
386.925	4108.91
387.146	4141.65
387.368	4169.6
387.589	4198.65
387.81	4227.4
388.032	4255.62
388.253	4286.38
388.474	4316.6
388.696	4348.23
388.917	4376.62
389.138	4406.52
389.359	4435.52
389.581	4464.69
389.802	4495.54
390.023	4523.29
390.244	4551.82
390.465	4582.34
390.687	4611.02
390.908	4640.69
391.129	4672.03
391.35	4702.98
391.571	4732.89
391.792	4762.71
392.013	4792.92
392.234	4823.56
392.455	4856.18
392.677	4887.96
392.898	4920.56
393.119	4952.25
393.34	4988.31
393.561	5019.45
393.782	5050.65
394.003	5082.32
394.223	5114.45
394.444	5146.11
394.665	5180.14
394.886	5212.07
395.107	5244.11
395.328	5277.82
395.549	5313.6
395.77	5343.51
395.99	5379.07
396.211	5415.98
396.432	5450.47
396.653	5485.74
396.874	5519.11
397.094	5551.98
397.315	5586.89
397.536	5623.85
397.757	5659.23
397.977	5692.72
398.198	5729.87
398.419	5765.14
398.639	5801.02
398.86	5834.78
399.081	5871.31
399.301	5906.82
399.522	5944.94
399.742	5982.22
399.963	6016.03
400.184	6052.87
400.404	6090.42
400.625	6120.58
400.845	6156.43
401.066	6190.34
401.286	6225.36
401.507	6258.6
401.727	6294.4
401.948	6326.03
402.168	6360.54
402.388	6396.74
402.609	6431.32
402.829	6464.71
403.05	6504.67
403.27	6537.4
403.49	6571.29
403.711	6610.31
403.931	6648.2
404.151	6679.14
404.372	6716.4
404.592	6750.65
404.812	6788.11
405.032	6817.78
405.253	6853.56
405.473	6890
405.693	6930.71
405.913	6967.89
406.133	7003.87
406.353	7042.51
406.574	7083.27
406.794	7120.07
407.014	7158.4
407.234	7195.23
407.454	7238.14
407.674	7273.25
407.894	7304.92
408.114	7338.83
408.334	7375.22
408.554	7412.67
408.774	7449.92
408.994	7483.25
409.214	7520.22
409.434	7557.14
409.654	7591.56
409.874	7623.52
410.094	7662.91
410.314	7702.31
410.534	7739.92
410.754	7776.83
410.974	7816.31
411.193	7853
411.413	7895.49
411.633	7931.11
411.853	7969.32
412.073	8010.56
412.292	8055.11
412.512	8095.96
412.732	8135.31
412.952	8172.38
413.171	8213.16
413.391	8251.42
413.611	8295
413.831	8338.71
414.05	8386.31
414.27	8426.8
414.489	8464.78
414.709	8506.38
414.929	8547.98
415.148	8594.29
415.368	8637.94
415.587	8682.89
415.807	8722.16
416.026	8763.31
416.246	8805.92
416.465	8849.29
416.685	8893.27
416.904	8937.07
417.124	8982.6
417.343	9025.03
417.563	9065.85
417.782	9111.2
418.002	9155.27
418.221	9197.25
418.44	9237.63
418.66	9278.05
418.879	9317.94
419.098	9363.47
419.318	9410.8
419.537	9454.29
419.756	9499.34
419.976	9544.22
420.195	9589.62
420.414	9630.31
420.633	9675.87
420.853	9721.18
421.072	9760.34
421.291	9806.54
421.51	9844.25
421.729	9885.85
421.948	9921.56
422.168	9960.72
422.387	10005.18
422.606	10044.72
422.825	10087.23
423.044	10134.51
423.263	10179.74
423.482	10233.02
423.701	10274.58
423.92	10320.51
424.139	10362.27
424.358	10410.45
424.577	10459.4
424.796	10506.71
425.015	10555.22
425.234	10603.09
425.453	10649.8
425.672	10696.25
425.891	10741.16
426.11	10786.36
426.328	10839.09
426.547	10886.32
426.766	10935.58
426.985	10982.49
427.204	11026.47
427.422	11073.78
427.641	11120.09
427.86	11164.62
428.079	11207.94
428.297	11252.23
428.516	11300.11
428.735	11345.94
428.954	11395.03
429.172	11440.51
429.391	11486.49
429.61	11533.36
429.828	11580.11
430.047	11629.42
430.265	11680.16
430.484	11732.38
430.703	11778.23
430.921	11824.36
431.14	11866.11
431.358	11913.92
431.577	11958.98
431.795	12008.34
432.014	12061.07
432.232	12111.51
432.451	12160.22
432.669	12206.82
432.887	12252.65
433.106	12302.27
433.324	12355.23
433.543	12404.03
433.761	12450.94
433.979	12504.45
434.198	12552.51
434.416	12592.47
434.634	12635.76
434.853	12682.42
435.071	12728.6
435.289	12774.12
435.507	12819.58
435.726	12860.49
435.944	12905.76
436.162	12957.03
436.38	13000.45
436.598	13045.6
436.817	13098.45
437.035	13145.36
437.253	13191.67
437.471	13240.89
437.689	13288.23
437.907	13338.12
438.125	13385.82
438.343	13443.34
438.561	13491.52
438.78	13538.4
438.998	13582.78
439.216	13629.22
439.434	13677.4
439.652	13725.05
439.869	13776.92
440.087	13829.18
440.305	13877.09
440.523	13927.78
440.741	13963.27
440.959	14008.27
441.177	14059.2
441.395	14107.38
441.613	14157.05
441.831	14206.45
442.048	14257.11
442.266	14298.49
442.484	14343.16
442.702	14394.51
442.919	14442.85
443.137	14498.92
443.355	14547.4
443.573	14596.62
443.79	14649.65
444.008	14692.67
444.226	14736.82
444.443	14786.96
444.661	14835.42
444.879	14879.87
445.096	14926.91
445.314	14979.29
445.532	15027.45
445.749	15079.76
445.967	15129.92
446.184	15175.71
446.402	15230.05
446.619	15284.14
446.837	15329.74
447.054	15377.65
447.272	15428.62
447.489	15475.27
447.707	15520.16
447.924	15567.12
448.141	15614.07
448.359	15659.91
448.576	15710.12
448.794	15761.27
449.011	15806.34
449.228	15853.96
449.446	15908.92
449.663	15955.74
449.88	15996.51
450.098	16042.82
450.315	16084.94
450.532	16127.91
450.749	16178.32
450.967	16230.14
451.184	16272.12
451.401	16322.69
451.618	16371.34
451.835	16410.2
452.052	16458.76
452.27	16515.87
452.487	16565.43
452.704	16623.42
452.921	16674.05
453.138	16722.32
453.355	16768.29
453.572	16810.34
453.789	16854.05
454.006	16900.42
454.223	16951.52
454.44	17006.6
454.657	17049.16
454.874	17092.92
