Data from test1_MAYP1115451__25__10-14-46-311.txt Node

Date: Wed Jun 12 10:14:46 MDT 2024
User: Modes Lab
Spectrometer: MAYP111545
Trigger mode: 0
Integration Time (sec): 8.000000E-3
Scans to average: 5
Electric dark correction enabled: true
Nonlinearity correction enabled: false
Boxcar width: 5
XAxis mode: Wavelengths
Number of Pixels in Spectrum: 2068
>>>>>Begin Spectral Data<<<<<
165.214	163.83
165.449	163.55
165.683	172.37
165.918	182.38
166.152	188.39
166.387	193.59
166.621	124.74
166.856	163.27
167.09	182.38
167.325	205.78
167.559	222.45
167.794	236.74
168.028	244.83
168.263	245.68
168.497	244.59
168.732	245.88
168.966	246.9
169.2	249.43
169.435	250.83
169.669	251.5
169.903	253.03
170.138	254.3
170.372	256.08
170.606	256.85
170.841	258.96
171.075	261.18
171.309	262.79
171.544	264.07
171.778	266.38
172.012	268.05
172.246	270.07
172.48	271.92
172.715	274.39
172.949	275.87
173.183	277.39
173.417	278.21
173.651	279.34
173.885	280.01
174.119	281.05
174.354	281.41
174.588	281.38
174.822	281.83
175.056	280.63
175.29	280.39
175.524	280.67
175.758	281.74
175.992	283.08
176.226	283.47
176.46	285.48
176.694	285.58
176.928	285.96
177.162	287.92
177.396	288.12
177.63	290.5
177.864	291.32
178.097	292.19
178.331	293.18
178.565	293.54
178.799	294.16
179.033	293.21
179.267	293.78
179.5	294.52
179.734	294.52
179.968	296.28
180.202	296.9
180.436	296.96
180.669	298.16
180.903	298.9
181.137	300.12
181.371	301.67
181.604	303.18
181.838	305.19
182.072	305.92
182.305	306.41
182.539	306.67
182.772	307.5
183.006	309.98
183.24	309.54
183.473	313.48
183.707	314.38
183.94	314.9
184.174	315.96
184.408	316.88
184.641	318.18
184.875	319.94
185.108	321.1
185.342	322.54
185.575	322.56
185.808	325.23
186.042	324.05
186.275	325.14
186.509	325.74
186.742	327.9
186.976	328.21
187.209	329.72
187.442	331.03
187.676	332.96
187.909	334.07
188.142	335.92
188.376	337.19
188.609	338.08
188.842	339.83
189.076	342.36
189.309	342.47
189.542	345.18
189.775	346.65
190.009	348.56
190.242	350.94
190.475	352.52
190.708	354.12
190.941	356.56
191.174	358.92
191.408	360.43
191.641	362.58
191.874	365.01
192.107	367.28
192.34	369.99
192.573	371.72
192.806	372.79
193.039	375.45
193.272	378.63
193.505	380.12
193.738	381.39
193.971	383.25
194.204	385.05
194.437	386.94
194.67	387.7
194.903	388.76
195.136	389.98
195.369	391.48
195.602	392.94
195.835	394.36
196.068	396.12
196.301	397.74
196.533	399.74
196.766	400.81
196.999	402.36
197.232	405.38
197.465	406.98
197.698	410.43
197.93	412.98
198.163	414.21
198.396	416.47
198.629	418.52
198.861	419.76
199.094	421.65
199.327	423.74
199.559	425.39
199.792	427.39
200.025	429.48
200.257	430.9
200.49	433.36
200.723	435.34
200.955	437.54
201.188	439.05
201.42	442.79
201.653	444.67
201.886	447.3
202.118	450.61
202.351	452.16
202.583	455.76
202.816	457.88
203.048	459.72
203.281	462.87
203.513	463.61
203.745	466.74
203.978	468.67
204.21	471.47
204.443	473.48
204.675	475.76
204.907	477.83
205.14	479.47
205.372	481.68
205.605	483.76
205.837	486.45
206.069	489.7
206.302	491.83
206.534	494.28
206.766	497.54
206.998	500.63
207.231	503.12
207.463	506.47
207.695	508.59
207.927	512.01
208.159	515.74
208.392	517.08
208.624	520.16
208.856	522.19
209.088	523.32
209.32	524.18
209.552	525.81
209.784	527.87
210.017	529.9
210.249	531.36
210.481	532.85
210.713	534.45
210.945	536.7
211.177	538.74
211.409	540.39
211.641	542.7
211.873	545.68
212.105	547.45
212.337	549.41
212.569	550.78
212.801	553.03
213.033	554.59
213.264	554.47
213.496	557.38
213.728	558.7
213.96	560.5
214.192	562.56
214.424	564.76
214.656	567.25
214.887	568.7
215.119	570.34
215.351	572.9
215.583	573.5
215.815	578.32
216.046	578.36
216.278	579.39
216.51	581.03
216.741	582.61
216.973	584.08
217.205	585.81
217.436	587.25
217.668	590.98
217.9	592.48
218.131	593.81
218.363	593.14
218.595	595.63
218.826	597.38
219.058	598.79
219.289	600.99
219.521	601.63
219.752	602.48
219.984	603.23
220.215	602.61
220.447	602.58
220.678	604.76
220.91	605.88
221.141	606.56
221.373	608.03
221.604	609.65
221.836	610.05
222.067	611.98
222.298	612.78
222.53	614.81
222.761	615.56
222.993	617.03
223.224	618.12
223.455	619.81
223.686	620.78
223.918	621.14
224.149	622.1
224.38	622.7
224.612	623.74
224.843	623.87
225.074	623.32
225.305	624.38
225.536	625.1
225.768	626.23
225.999	626.76
226.23	628.07
226.461	629.03
226.692	629.61
226.923	630.63
227.155	632.59
227.386	634.83
227.617	635.56
227.848	636.32
228.079	637.76
228.31	638.14
228.541	639.65
228.772	640.12
229.003	640.43
229.234	640.19
229.465	639.48
229.696	636.03
229.927	634.58
230.158	634.72
230.389	634.12
230.62	634.28
230.85	634.43
231.081	633.72
231.312	632.92
231.543	632.21
231.774	632.05
232.005	633.87
232.236	635.36
232.466	636.03
232.697	637.01
232.928	638.52
233.159	638.08
233.389	639.67
233.62	640.25
233.851	640.38
234.082	640.47
234.312	641.96
234.543	641.41
234.774	641.48
235.004	641.32
235.235	640.99
235.466	639.88
235.696	639.99
235.927	638.92
236.157	638.72
236.388	639.56
236.618	640.08
236.849	638.38
237.08	638.38
237.31	637.74
237.541	638.08
237.771	638.23
238.002	638.52
238.232	637.21
238.463	636.01
238.693	634.7
238.923	633.88
239.154	633.43
239.384	632.99
239.615	631.83
239.845	631.34
240.075	630.58
240.306	628.65
240.536	627.76
240.766	628.27
240.997	628.07
241.227	628.72
241.457	627.94
241.687	627.18
241.918	627.05
242.148	625.52
242.378	624.47
242.608	623.21
242.839	623.98
243.069	622.48
243.299	621.83
243.529	622.43
243.759	621.16
243.989	620.5
244.22	621.59
244.45	620.79
244.68	622.68
244.91	621.99
245.14	621.34
245.37	621.61
245.6	622.85
245.83	621.39
246.06	619.67
246.29	619.38
246.52	619.32
246.75	618.68
246.98	618.59
247.21	617.08
247.44	617.28
247.67	616.45
247.9	615.25
248.13	613.43
248.359	613.81
248.589	612.85
248.819	610.96
249.049	610.1
249.279	608.9
249.509	608.85
249.738	609.16
249.968	609.43
250.198	608.54
250.428	608.3
250.657	607.47
250.887	606.83
251.117	607.05
251.347	607.36
251.576	607.52
251.806	605.79
252.036	605.32
252.265	604.92
252.495	603.72
252.725	604.34
252.954	602.76
253.184	602.81
253.413	602.63
253.643	602.39
253.873	601.47
254.102	600.3
254.332	599.52
254.561	598.41
254.791	596.85
255.02	597.08
255.25	596.25
255.479	595.7
255.708	595.16
255.938	594.45
256.167	592.72
256.397	592.56
256.626	593.21
256.856	594.28
257.085	594.28
257.314	594.61
257.544	593.16
257.773	593.19
258.002	592.92
258.232	592.38
258.461	590.72
258.69	590.88
258.919	590.61
259.149	589.23
259.378	588.79
259.607	587.27
259.836	585.32
260.065	585.16
260.295	583.54
260.524	583.28
260.753	583.67
260.982	583.5
261.211	582.45
261.44	581.41
261.669	579.68
261.899	577.81
262.128	577.1
262.357	577.32
262.586	576.07
262.815	575.74
263.044	574.96
263.273	576.47
263.502	575.61
263.731	574.05
263.96	572.63
264.189	571.43
264.418	570.08
264.646	568.85
264.875	566.56
265.104	565.5
265.333	563.96
265.562	561.65
265.791	557.1
266.02	556.3
266.249	555.19
266.477	554.45
266.706	554.3
266.935	554.5
267.164	554.52
267.393	553.59
267.621	552.59
267.85	552.48
268.079	552.92
268.307	552.38
268.536	551.61
268.765	551.81
268.993	550.18
269.222	549.87
269.451	548.59
269.679	548.38
269.908	549.19
270.137	549.03
270.365	548.45
270.594	547.27
270.822	547.27
271.051	548.45
271.279	548.68
271.508	549.5
271.736	550.78
271.965	551.25
272.193	550.65
272.422	551.05
272.65	550.34
272.879	551.32
273.107	551.88
273.336	552.5
273.564	551.48
273.792	549.63
274.021	548.96
274.249	545.78
274.477	544.7
274.706	542.98
274.934	541.07
275.162	540.68
275.391	539.5
275.619	538.1
275.847	536.63
276.075	535.47
276.304	535.99
276.532	535.32
276.76	534.98
276.988	533.7
277.216	534.27
277.445	533.07
277.673	533.28
277.901	532.68
278.129	532.88
278.357	531.12
278.585	529.19
278.813	529.28
279.041	528.5
279.269	527.1
279.497	527.28
279.725	525.54
279.954	525.67
280.182	523.65
280.41	523.81
280.637	522.78
280.865	523.21
281.093	522.83
281.321	520.94
281.549	520.43
281.777	520.7
282.005	518.94
282.233	519.88
282.461	519.21
282.689	520.05
282.916	517.72
283.144	516.18
283.372	515.19
283.6	515.59
283.828	514.74
284.055	514.87
284.283	515.63
284.511	516.39
284.739	515.99
284.966	515.18
285.194	513.67
285.422	513.32
285.649	513.41
285.877	512.5
286.105	511.07
286.332	511.01
286.56	510.68
286.788	509.27
287.015	509.08
287.243	507.92
287.47	508.1
287.698	508.18
287.925	507.54
288.153	506.56
288.381	506.23
288.608	505.99
288.836	505.61
289.063	504.83
289.29	505.12
289.518	504.12
289.745	503.32
289.973	502.41
290.2	502.47
290.428	502.1
290.655	503.03
290.882	503.01
291.11	502.01
291.337	500.87
291.564	499.48
291.792	498.28
292.019	497.63
292.246	496.43
292.473	495.98
292.701	494.47
292.928	493.58
293.155	491.54
293.382	489.67
293.61	490.85
293.837	489.74
294.064	489.67
294.291	488.9
294.518	488.65
294.745	489.96
294.972	489.3
295.2	488.65
295.427	489.07
295.654	489.34
295.881	488.88
296.108	487.12
296.335	487.56
296.562	487.98
296.789	486.43
297.016	486.41
297.243	484.36
297.47	483.59
297.697	482.96
297.924	481.34
298.151	479.92
298.378	479.68
298.604	478.88
298.831	478.01
299.058	476.81
299.285	476.94
299.512	474.19
299.739	473.59
299.966	473.41
300.192	472.18
300.419	471.88
300.646	471.58
300.873	471.54
301.099	471.81
301.326	471.18
301.553	470.21
301.78	471.07
302.006	471.74
302.233	470.99
302.46	470.32
302.686	471.07
302.913	470.12
303.14	470.47
303.366	470.36
303.593	469.85
303.819	469.92
304.046	469.56
304.272	468.79
304.499	468.54
304.725	468.61
304.952	468.19
305.179	467.1
305.405	468.21
305.631	468.18
305.858	467.79
306.084	466.65
306.311	466.52
306.537	466.12
306.764	465.32
306.99	464.88
307.216	464.79
307.443	464.59
307.669	465.58
307.895	463.92
308.122	461.96
308.348	461.27
308.574	461.45
308.801	460.99
309.027	461.27
309.253	460.48
309.479	461.12
309.706	460.67
309.932	459.98
310.158	459.39
310.384	459.7
310.61	461.61
310.837	461.41
311.063	460.78
311.289	459.92
311.515	459.76
311.741	459.39
311.967	458.99
312.193	459.58
312.419	460.56
312.645	459.25
312.871	459.27
313.097	458.68
313.323	459.36
313.549	460.72
313.775	461.7
314.001	461.12
314.227	462.61
314.453	462.45
314.679	462.56
314.905	461.3
315.131	462.19
315.357	463.34
315.583	463.65
315.809	463.12
316.034	463.16
316.26	463.78
316.486	464.27
316.712	463.92
316.938	464.01
317.163	464.27
317.389	464.54
317.615	466.56
317.841	466.1
318.066	466.88
318.292	467.92
318.518	467.48
318.743	467.48
318.969	469.19
319.195	470.23
319.42	470.19
319.646	470.68
319.872	472.76
320.097	472.74
320.323	473.32
320.548	474.3
320.774	476.32
320.999	477.87
321.225	478.58
321.45	479.21
321.676	480.08
321.901	482.21
322.127	483.59
322.352	483.85
322.578	485.74
322.803	488.61
323.029	489.47
323.254	489.3
323.479	490.74
323.705	492.14
323.93	494.1
324.155	496.92
324.381	498.27
324.606	500.79
324.831	504.48
325.057	506.25
325.282	508.28
325.507	509.96
325.732	513.45
325.958	516.3
326.183	519.28
326.408	521.43
326.633	524.63
326.858	527.99
327.084	529.67
327.309	531.54
327.534	535.05
327.759	537.96
327.984	542.21
328.209	545.3
328.434	548.05
328.659	551.7
328.884	554.56
329.109	555.78
329.334	559.03
329.559	563.76
329.784	566.45
330.009	568.32
330.234	571.28
330.459	574.61
330.684	577.78
330.909	582.3
331.134	585.81
331.359	589.16
331.584	593.78
331.809	598.01
332.034	600.72
332.259	606.14
332.483	610.96
332.708	614.58
332.933	618.7
333.158	622.25
333.383	625.96
333.607	631.27
333.832	637.39
334.057	642.76
334.282	647.98
334.506	653.85
334.731	658.47
334.956	663.63
335.18	670.19
335.405	676.87
335.63	682.99
335.854	688.45
336.079	692.85
336.303	697.25
336.528	702.7
336.753	707.58
336.977	713.74
337.202	719.87
337.426	725.59
337.651	731.07
337.875	737.21
338.1	743.79
338.324	751.54
338.549	759.34
338.773	768.1
338.997	774.72
339.222	781.98
339.446	788.5
339.671	796.1
339.895	804.32
340.119	813.03
340.344	819.79
340.568	827.79
340.792	835.39
341.017	843.78
341.241	850.79
341.465	858.68
341.689	867.18
341.914	875.34
342.138	881.5
342.362	889.83
342.586	895.88
342.811	904.5
343.035	914.34
343.259	922.1
343.483	930.01
343.707	938.39
343.931	947.65
344.155	956.32
344.38	965.1
344.604	976.76
344.828	985.68
345.052	995.36
345.276	1004.9
345.5	1013.59
345.724	1024.92
345.948	1034.67
346.172	1046.1
346.396	1055.28
346.62	1066.56
346.844	1078.9
347.068	1088.23
347.292	1099.12
347.515	1110.01
347.739	1120.5
347.963	1128.98
348.187	1138.45
348.411	1148.94
348.635	1158.45
348.859	1170.5
349.082	1181.39
349.306	1190.32
349.53	1201.7
349.754	1211.63
349.977	1222.61
350.201	1232.58
350.425	1246.18
350.649	1257.61
350.872	1270.32
351.096	1281.18
351.32	1292.14
351.543	1302.5
351.767	1312.36
351.99	1323.7
352.214	1334.96
352.438	1345.99
352.661	1359.43
352.885	1367.5
353.108	1379.07
353.332	1388.67
353.555	1401.96
353.779	1413.79
354.002	1424.68
354.226	1438.12
354.449	1450.34
354.673	1463.01
354.896	1475.14
355.12	1486.61
355.343	1500.39
355.566	1512.14
355.79	1524.14
356.013	1536.58
356.237	1548.05
356.46	1560.96
356.683	1572.07
356.907	1583.39
357.13	1595.28
357.353	1608.03
357.576	1621.61
357.8	1633.87
358.023	1645.83
358.246	1659.39
358.469	1671.36
358.693	1684.87
358.916	1698.21
359.139	1713.85
359.362	1728.65
359.585	1740.5
359.808	1752.98
360.031	1764.18
360.255	1779.01
360.478	1793.56
360.701	1808.18
360.924	1819.94
361.147	1832.47
361.37	1847.16
361.593	1859.9
361.816	1874.7
362.039	1890.25
362.262	1905.72
362.485	1917.83
362.708	1932.18
362.931	1946.58
363.154	1958.98
363.377	1974.16
363.599	1988.25
363.822	2002.32
364.045	2013.94
364.268	2026.54
364.491	2041.39
364.714	2055.27
364.936	2071.68
365.159	2085.58
365.382	2100.47
365.605	2118.7
365.828	2138.56
366.05	2154.78
366.273	2166.96
366.496	2184.54
366.718	2200.9
366.941	2215.67
367.164	2233.14
367.386	2248.48
367.609	2263.79
367.832	2279.79
368.054	2291.99
368.277	2303.59
368.5	2319.38
368.722	2334.74
368.945	2352.18
369.167	2367.79
369.39	2384.48
369.612	2397.12
369.835	2416.12
370.057	2431.05
370.28	2448.23
370.502	2465.38
370.725	2481.99
370.947	2499.27
371.169	2519.59
371.392	2535.81
371.614	2552.34
371.837	2568.45
372.059	2588.25
372.281	2602.9
372.504	2623.39
372.726	2639.83
372.948	2658.12
373.171	2676.12
373.393	2694.85
373.615	2711.08
373.837	2730.05
374.06	2749.16
374.282	2769.39
374.504	2789.27
374.726	2808.54
374.948	2826.88
375.17	2846.36
375.393	2865.36
375.615	2882.61
375.837	2901.32
376.059	2921.14
376.281	2938.32
376.503	2957.56
376.725	2979.59
376.947	2996.81
377.169	3016.16
377.391	3035.3
377.613	3053.79
377.835	3076.25
378.057	3100.47
378.279	3123.38
378.501	3146.96
378.723	3170.19
378.945	3189.58
379.167	3207.68
379.389	3231.79
379.611	3256.19
379.833	3280.41
380.054	3305.18
380.276	3327.21
380.498	3348.81
380.72	3372.92
380.942	3397.34
381.163	3424.39
381.385	3451.99
381.607	3478.58
381.829	3501.96
382.05	3527.94
382.272	3554.05
382.494	3577.92
382.716	3601.36
382.937	3626.92
383.159	3649.43
383.381	3672.3
383.602	3696.54
383.824	3720.28
384.045	3746.85
384.267	3775.18
384.488	3799.92
384.71	3823.9
384.932	3849.58
385.153	3876.47
385.375	3907.38
385.596	3934.18
385.818	3960.52
386.039	3989.01
386.261	4017.85
386.482	4042.98
386.703	4069.61
386.925	4098.07
387.146	4128.72
387.368	4158.34
387.589	4189.58
387.81	4216.27
388.032	4248.59
388.253	4279.16
388.474	4311.38
388.696	4341.65
388.917	4374.47
389.138	4403.78
389.359	4437.1
389.581	4468.41
389.802	4498.7
390.023	4528.88
390.244	4555.19
390.465	4584.7
390.687	4614.19
390.908	4639.25
391.129	4668.23
391.35	4697.99
391.571	4733.98
391.792	4763.1
392.013	4792.92
392.234	4824.23
392.455	4855.68
392.677	4892.39
392.898	4924.56
393.119	4957.78
393.34	4991.27
393.561	5024.54
393.782	5058.21
394.003	5087.07
394.223	5116.43
394.444	5149.21
394.665	5185.41
394.886	5219.01
395.107	5250.58
395.328	5284.08
395.549	5321.32
395.77	5356.07
395.99	5392.72
396.211	5425.47
396.432	5458.74
396.653	5498.01
396.874	5532.76
397.094	5564.98
397.315	5596.01
397.536	5630.87
397.757	5662.74
397.977	5694.3
398.198	5726.27
398.419	5760.61
398.639	5795.27
398.86	5832.45
399.081	5867.25
399.301	5901.87
399.522	5936.68
399.742	5974.14
399.963	6012.25
400.184	6049.14
400.404	6086.05
400.625	6121.18
400.845	6154.34
401.066	6190.81
401.286	6224.9
401.507	6260.21
401.727	6296.81
401.948	6335.14
402.168	6370.07
402.388	6400.98
402.609	6434.23
402.829	6467.85
403.05	6505.5
403.27	6542.96
403.49	6577.54
403.711	6609.3
403.931	6645.9
404.151	6679.68
404.372	6710.27
404.592	6749.98
404.812	6785.56
405.032	6822.34
405.253	6856.81
405.473	6889.65
405.693	6922.74
405.913	6959.98
406.133	6999.03
406.353	7033.48
406.574	7068.96
406.794	7105.79
407.014	7140.96
407.234	7178.08
407.454	7212.87
407.674	7250.12
407.894	7284.9
408.114	7320.87
408.334	7357.25
408.554	7395.18
408.774	7432.32
408.994	7470.36
409.214	7511.74
409.434	7547.47
409.654	7585.74
409.874	7627.41
410.094	7663.3
410.314	7708.28
410.534	7748.3
410.754	7787.48
410.974	7829.08
411.193	7868.3
411.413	7907.05
411.633	7942.41
411.853	7982.67
412.073	8020.05
412.292	8058.32
412.512	8099.14
412.732	8134.72
412.952	8172.32
413.171	8210.14
413.391	8243.96
413.611	8283.38
413.831	8326.98
414.05	8373.3
414.27	8413.85
414.489	8459.58
414.709	8503.01
414.929	8547.76
415.148	8590.54
415.368	8635.98
415.587	8681.76
415.807	8731.96
416.026	8772.01
416.246	8811.74
416.465	8856.34
416.685	8895.76
416.904	8939.74
417.124	8980.08
417.343	9028.08
417.563	9073.92
417.782	9116.87
418.002	9158.98
418.221	9203.45
418.44	9248.45
418.66	9295.88
418.879	9333.3
419.098	9384.28
419.318	9428.58
419.537	9475.3
419.756	9514.18
419.976	9554.01
420.195	9600.87
420.414	9643.96
420.633	9681.01
420.853	9721.27
421.072	9759.79
421.291	9801.72
421.51	9843.54
421.729	9884.65
421.948	9928.65
422.168	9968.7
422.387	10014.03
422.606	10052.07
422.825	10097.81
423.044	10144.81
423.263	10194.47
423.482	10236.74
423.701	10287.36
423.92	10327.88
424.139	10373.36
424.358	10417.05
424.577	10466.03
424.796	10512.14
425.015	10566.16
425.234	10611.76
425.453	10654.18
425.672	10700.81
425.891	10753.45
426.11	10798.68
426.328	10846.65
426.547	10891.92
426.766	10935.27
426.985	10982.98
427.204	11031.76
427.422	11076.47
427.641	11124.87
427.86	11175.34
428.079	11219.47
428.297	11275.16
428.516	11321.74
428.735	11370.12
428.954	11420.18
429.172	11468.67
429.391	11518.05
429.61	11567.12
429.828	11613.61
430.047	11661.41
430.265	11710.63
430.484	11760.18
430.703	11798.03
430.921	11842.99
431.14	11889.5
431.358	11932.59
431.577	11977.16
431.795	12025.21
432.014	12067.87
432.232	12115.94
432.451	12159.81
432.669	12208.27
432.887	12253.78
433.106	12298.5
433.324	12346.79
433.543	12397.1
433.761	12441.99
433.979	12498.61
434.198	12546.34
434.416	12594.34
434.634	12642.12
434.853	12694.52
435.071	12737.19
435.289	12788.03
435.507	12838.32
435.726	12887.48
435.944	12928.12
436.162	12976.59
436.38	13020.52
436.598	13062.78
436.817	13111.67
437.035	13157.7
437.253	13198.25
437.471	13250.08
437.689	13292.19
437.907	13339.23
438.125	13384.36
438.343	13431.96
438.561	13487.34
438.78	13529.81
438.998	13581.21
439.216	13625.47
439.434	13669.28
439.652	13720.3
439.869	13768.41
440.087	13814.98
440.305	13858.98
440.523	13905.18
440.741	13959.07
440.959	13998.56
441.177	14052.12
441.395	14096.96
441.613	14149.25
441.831	14198.54
442.048	14245.7
442.266	14285.65
442.484	14338.43
442.702	14390.28
442.919	14441.25
443.137	14490.67
443.355	14544.45
443.573	14592.52
443.79	14638.39
444.008	14687.39
444.226	14738.23
444.443	14784.36
444.661	14835.08
444.879	14884.41
445.096	14936.07
445.314	14991.34
445.532	15034.76
445.749	15084.58
445.967	15133.32
446.184	15189.88
446.402	15236.72
446.619	15287.3
446.837	15336.83
447.054	15389.65
447.272	15431.5
447.489	15479.67
447.707	15517.76
447.924	15567.19
448.141	15612.27
448.359	15662.83
448.576	15709.23
448.794	15759.99
449.011	15801.58
449.228	15851.7
449.446	15892.18
449.663	15948.23
449.88	15990.32
450.098	16047.16
450.315	16096.79
450.532	16140.65
450.749	16188.56
450.967	16234.58
451.184	16278.56
451.401	16329.16
451.618	16377.32
451.835	16434.28
452.052	16476.47
452.27	16526.58
452.487	16576.43
452.704	16620.48
452.921	16669.58
453.138	16715.88
453.355	16762.28
453.572	16812.34
453.789	16856.1
454.006	16903.83
454.223	16954.47
454.44	17008.58
