Data from test1_MAYP1115451__73__10-15-02-271.txt Node

Date: Wed Jun 12 10:15:02 MDT 2024
User: Modes Lab
Spectrometer: MAYP111545
Trigger mode: 0
Integration Time (sec): 8.000000E-3
Scans to average: 5
Electric dark correction enabled: true
Nonlinearity correction enabled: false
Boxcar width: 5
XAxis mode: Wavelengths
Number of Pixels in Spectrum: 2068
>>>>>Begin Spectral Data<<<<<
165.214	163.9
165.449	163.74
165.683	173.07
165.918	182.43
166.152	188.93
166.387	194.24
166.621	125.68
166.856	164.98
167.09	183.48
167.325	206.93
167.559	224.38
167.794	238.8
168.028	246.51
168.263	248.17
168.497	247.29
168.732	247.69
168.966	248.13
169.2	249.71
169.435	250.69
169.669	252.33
169.903	253.98
170.138	254.49
170.372	255.22
170.606	256.48
170.841	257.42
171.075	260.35
171.309	262.49
171.544	264.46
171.778	266
172.012	267.91
172.246	269.04
172.48	271.64
172.715	274.66
172.949	276.44
173.183	278.53
173.417	279.82
173.651	281.48
173.885	282.09
174.119	282.64
174.354	284.51
174.588	284.35
174.822	285.38
175.056	284.29
175.29	282.86
175.524	282.98
175.758	282.98
175.992	283.8
176.226	283
176.46	283.26
176.694	284.75
176.928	285.58
177.162	286.97
177.396	287.86
177.63	289.2
177.864	291.35
178.097	292.2
178.331	292.51
178.565	292.84
178.799	293.82
179.033	294.57
179.267	294.53
179.5	294.88
179.734	296.02
179.968	296.77
180.202	297.51
180.436	297.09
180.669	298.57
180.903	300.02
181.137	301.91
181.371	302.35
181.604	303.4
181.838	305.11
182.072	306.11
182.305	306.73
182.539	307.84
182.772	309.53
183.006	311.28
183.24	312.18
183.473	316.33
183.707	317.57
183.94	318.69
184.174	319.84
184.408	321.33
184.641	321.73
184.875	323.11
185.108	323.95
185.342	325.86
185.575	327.04
185.808	328.26
186.042	327.02
186.275	327.31
186.509	328.55
186.742	331
186.976	331.71
187.209	333.8
187.442	334.68
187.676	336.42
187.909	336.18
188.142	337.37
188.376	339.77
188.609	340.2
188.842	341.91
189.076	344.33
189.309	345.71
189.542	347.44
189.775	349.49
190.009	350.35
190.242	351.82
190.475	354.82
190.708	356.95
190.941	358.18
191.174	360.37
191.408	361.89
191.641	362.26
191.874	363.58
192.107	365
192.34	366.69
192.573	369.77
192.806	370.44
193.039	371
193.272	373.2
193.505	374.29
193.738	376.78
193.971	379.26
194.204	382.29
194.437	383.73
194.67	385.58
194.903	386.28
195.136	388.2
195.369	391.53
195.602	393.88
195.835	395.55
196.068	398.17
196.301	399.84
196.533	401.06
196.766	403.2
196.999	405.4
197.232	407.28
197.465	409.28
197.698	411.89
197.93	413.71
198.163	415.91
198.396	417.75
198.629	419.26
198.861	420.04
199.094	422.77
199.327	424.29
199.559	426.75
199.792	428.93
200.025	431.33
200.257	431.98
200.49	434.49
200.723	435.73
200.955	437.78
201.188	439.6
201.42	442.93
201.653	445.06
201.886	446.42
202.118	448.46
202.351	450.6
202.583	452.97
202.816	456.37
203.048	458.75
203.281	462.04
203.513	463.86
203.745	468.29
203.978	469.77
204.21	471.24
204.443	474.77
204.675	475.13
204.907	477.84
205.14	480.33
205.372	481.64
205.605	482.77
205.837	485.6
206.069	488.68
206.302	488.28
206.534	491.73
206.766	494.06
206.998	496.2
207.231	500.62
207.463	502.71
207.695	505.33
207.927	507.22
208.159	509.8
208.392	510.64
208.624	512.26
208.856	516.13
209.088	518
209.32	520.75
209.552	522.53
209.784	524.57
210.017	526.53
210.249	528.35
210.481	531.64
210.713	533.6
210.945	536.88
211.177	540.28
211.409	541.15
211.641	543.8
211.873	545.64
212.105	548
212.337	548.4
212.569	550.71
212.801	553.4
213.033	554.97
213.264	557.53
213.496	559.2
213.728	559.97
213.96	564.35
214.192	564.93
214.424	566.18
214.656	566.86
214.887	570.89
215.119	574.49
215.351	575.2
215.583	576.89
215.815	579.89
216.046	581.91
216.278	582.78
216.51	582.91
216.741	584.44
216.973	586.42
217.205	589.49
217.436	590.04
217.668	590.62
217.9	592.64
218.131	594.29
218.363	593.18
218.595	593.91
218.826	596.49
219.058	598.8
219.289	600.57
219.521	601.26
219.752	601.77
219.984	602.89
220.215	603.08
220.447	603.73
220.678	603.77
220.91	606.15
221.141	607.38
221.373	608.68
221.604	609.86
221.836	610.88
222.067	613.8
222.298	616.13
222.53	617.24
222.761	618.89
222.993	620.57
223.224	623.29
223.455	624.29
223.686	624.58
223.918	625.95
224.149	625.91
224.38	626.66
224.612	626.22
224.843	626.29
225.074	627.57
225.305	628.57
225.536	628.46
225.768	629.44
225.999	629.8
226.23	631.17
226.461	630.09
226.692	630.06
226.923	630.71
227.155	633.51
227.386	633.48
227.617	633.89
227.848	633.71
228.079	634.68
228.31	633.58
228.541	633.22
228.772	634.04
229.003	634.18
229.234	634.06
229.465	633.62
229.696	630.95
229.927	630.73
230.158	630.48
230.389	629.28
230.62	630.49
230.85	631.66
231.081	633.57
231.312	633.68
231.543	633.69
231.774	634.58
232.005	635.15
232.236	636.08
232.466	638.26
232.697	638.71
232.928	639.31
233.159	637.66
233.389	637.73
233.62	637.17
233.851	636.93
234.082	636.37
234.312	637.02
234.543	636.93
234.774	636.95
235.004	634.53
235.235	633.51
235.466	632.64
235.696	633.31
235.927	632.48
236.157	631.38
236.388	631.06
236.618	632
236.849	629.49
237.08	629.53
237.31	628.31
237.541	629.4
237.771	629.71
238.002	630.08
238.232	629.82
238.463	630.53
238.693	631.09
238.923	630.33
239.154	629.95
239.384	630.66
239.615	629.33
239.845	628.58
240.075	627.8
240.306	626.66
240.536	626.24
240.766	625.8
240.997	624.82
241.227	624.97
241.457	623.77
241.687	623.28
241.918	623.46
242.148	624.18
242.378	625.51
242.608	624.93
242.839	625.8
243.069	625.86
243.299	624.57
243.529	625.22
243.759	624.93
243.989	625.17
244.22	625.8
244.45	625.51
244.68	625.78
244.91	625.51
245.14	625.24
245.37	625.22
245.6	625.17
245.83	624.68
246.06	622.17
246.29	621.84
246.52	622.24
246.75	620.15
246.98	619.93
247.21	618.44
247.44	617.08
247.67	616.58
247.9	614.53
248.13	613.57
248.359	612.53
248.589	612.71
248.819	611.09
249.049	610.18
249.279	609.42
249.509	607.22
249.738	608.06
249.968	607.46
250.198	605.68
250.428	605.89
250.657	605.44
250.887	606.09
251.117	605.8
251.347	604.66
251.576	604.75
251.806	604.64
252.036	605.64
252.265	604.17
252.495	603.68
252.725	604.57
252.954	602.55
253.184	601.55
253.413	601.15
253.643	600.04
253.873	599.93
254.102	599.2
254.332	600.31
254.561	599.66
254.791	598.68
255.02	598.66
255.25	597.91
255.479	597.58
255.708	598.78
255.938	597.69
256.167	597.75
256.397	596.75
256.626	595.71
256.856	593.2
257.085	591.88
257.314	591.24
257.544	590.26
257.773	589.73
258.002	590.2
258.232	587.73
258.461	588.6
258.69	587.48
258.919	586.31
259.149	584.86
259.378	584.4
259.607	583.82
259.836	583.58
260.065	583.57
260.295	583.29
260.524	582.53
260.753	582.49
260.982	580.66
261.211	579.93
261.44	580.29
261.669	580.2
261.899	580.2
262.128	579.42
262.357	577.75
262.586	576.04
262.815	574.33
263.044	573.89
263.273	576.35
263.502	575.82
263.731	575.71
263.96	574.73
264.189	573.68
264.418	572.58
264.646	571.48
264.875	570.49
265.104	569.77
265.333	568.97
265.562	567.78
265.791	563.2
266.02	562.6
266.249	561.02
266.477	559.69
266.706	558.62
266.935	557.66
267.164	556.88
267.393	557.53
267.621	556.97
267.85	555.71
268.079	554.29
268.307	553.78
268.536	550.77
268.765	550.06
268.993	550.62
269.222	549.86
269.451	549.53
269.679	549.53
269.908	548.75
270.137	548.97
270.365	549.78
270.594	549.35
270.822	549.64
271.051	551.42
271.279	552.17
271.508	551.58
271.736	552.69
271.965	552.51
272.193	552.8
272.422	553.53
272.65	553.28
272.879	552.35
273.107	552.46
273.336	551.8
273.564	549.97
273.792	548.33
274.021	546.8
274.249	544.95
274.477	544.09
274.706	543.28
274.934	539.4
275.162	537.33
275.391	537.11
275.619	536.88
275.847	535.53
276.075	535.18
276.304	534.15
276.532	534.57
276.76	533.73
276.988	533.8
277.216	532.24
277.445	532.51
277.673	533
277.901	531.26
278.129	530
278.357	531.02
278.585	530.88
278.813	530.62
279.041	527.89
279.269	527
279.497	525.04
279.725	524.8
279.954	525.98
280.182	524.2
280.41	524.2
280.637	524.55
280.865	523.26
281.093	523.28
281.321	522.73
281.549	523.55
281.777	524.06
282.005	523.66
282.233	522.95
282.461	521.66
282.689	521.78
282.916	521.15
283.144	519.78
283.372	519.86
283.6	517.73
283.828	516.98
284.055	516.58
284.283	516.55
284.511	516.4
284.739	516.42
284.966	515.64
285.194	514.29
285.422	513.55
285.649	513.62
285.877	510.91
286.105	511.66
286.332	512.02
286.56	511.49
286.788	510.97
287.015	510.04
287.243	508.93
287.47	508.75
287.698	508.6
287.925	508.86
288.153	507.46
288.381	508.31
288.608	507.28
288.836	506.48
289.063	505.29
289.29	504.22
289.518	504.38
289.745	504.22
289.973	503.04
290.2	504.62
290.428	503.06
290.655	503.73
290.882	504.15
291.11	503.66
291.337	502.64
291.564	502.53
291.792	501.22
292.019	500.82
292.246	499.71
292.473	498.78
292.701	496.77
292.928	496.84
293.155	495.62
293.382	493.6
293.61	493.37
293.837	492.73
294.064	491.8
294.291	490.48
294.518	489.91
294.745	489.46
294.972	489.8
295.2	488.89
295.427	487.95
295.654	487.17
295.881	485.82
296.108	484.8
296.335	483.98
296.562	482.88
296.789	482.91
297.016	481.82
297.243	479.97
297.47	478.88
297.697	477.62
297.924	477.93
298.151	476.89
298.378	477.62
298.604	477.49
298.831	476.42
299.058	476.82
299.285	476.97
299.512	476.49
299.739	477.57
299.966	477.46
300.192	477.86
300.419	476.71
300.646	475.89
300.873	475.73
301.099	475.18
301.326	475.62
301.553	475.28
301.78	475.42
302.006	474.97
302.233	474.48
302.46	473.29
302.686	472.77
302.913	472.46
303.14	473.04
303.366	471.44
303.593	470.86
303.819	471.09
304.046	470.24
304.272	468.64
304.499	468.84
304.725	469.11
304.952	469.09
305.179	468.37
305.405	468.93
305.631	468.73
305.858	468.88
306.084	468.46
306.311	467.6
306.537	468
306.764	468.17
306.99	468.08
307.216	466.98
307.443	467.97
307.669	467.84
307.895	466.04
308.122	465.88
308.348	466.15
308.574	465.33
308.801	465.35
309.027	465.6
309.253	465.64
309.479	465.69
309.706	465.51
309.932	464.46
310.158	465.08
310.384	466.17
310.61	465.69
310.837	465.31
311.063	465.97
311.289	465.31
311.515	464.29
311.741	464.35
311.967	463.77
312.193	464.66
312.419	464.31
312.645	463.38
312.871	462.57
313.097	463.33
313.323	463.38
313.549	463.97
313.775	463.68
314.001	464.09
314.227	463.06
314.453	463.35
314.679	462.51
314.905	463.28
315.131	462.91
315.357	464.35
315.583	463.04
315.809	463.77
316.034	463.4
316.26	464.53
316.486	465.46
316.712	466.78
316.938	466.62
317.163	467.29
317.389	468.38
317.615	469.26
317.841	468.8
318.066	470.73
318.292	469.93
318.518	470.55
318.743	470.73
318.969	470.77
319.195	471.33
319.42	471.88
319.646	472.55
319.872	471.73
320.097	472.71
320.323	473.6
320.548	475.06
320.774	476.4
320.999	477.66
321.225	479.64
321.45	481.06
321.676	482.58
321.901	484.17
322.127	484.4
322.352	487.02
322.578	488.91
322.803	490.26
323.029	490.6
323.254	493.31
323.479	494.37
323.705	494.04
323.93	495.53
324.155	496.57
324.381	498.02
324.606	500.17
324.831	502.33
325.057	504.29
325.282	506.42
325.507	507.82
325.732	509.77
325.958	512.66
326.183	515.48
326.408	518.24
326.633	521.49
326.858	525
327.084	528.98
327.309	531.18
327.534	533.95
327.759	535.64
327.984	539.8
328.209	542.33
328.434	545.49
328.659	549.22
328.884	552.93
329.109	555.53
329.334	558.26
329.559	560.48
329.784	563.04
330.009	566.4
330.234	571.13
330.459	574.51
330.684	577.69
330.909	580.29
331.134	584.46
331.359	586.4
331.584	591.17
331.809	595
332.034	598.71
332.259	603.26
332.483	607.4
332.708	610.42
332.933	614.66
333.158	618.35
333.383	624.09
333.607	628.09
333.832	633.55
334.057	638.86
334.282	643.18
334.506	650
334.731	655.09
334.956	660.53
335.18	666.2
335.405	671.31
335.63	677.71
335.854	682.53
336.079	689.49
336.303	695.77
336.528	701.06
336.753	707.77
336.977	714.04
337.202	721.02
337.426	727.95
337.651	735.91
337.875	743.71
338.1	750.4
338.324	758.31
338.549	763.93
338.773	771.31
338.997	777.06
339.222	785.4
339.446	791.28
339.671	799.15
339.895	806.46
340.119	811.82
340.344	818.11
340.568	825.64
340.792	832.64
341.017	840.37
341.241	847.91
341.465	858.15
341.689	864.68
341.914	872.98
342.138	880.78
342.362	889.82
342.586	899.22
342.811	907.58
343.035	918.49
343.259	926.28
343.483	935.71
343.707	942.82
343.931	950.6
344.155	959.55
344.38	970.09
344.604	978.44
344.828	987.58
345.052	997.86
345.276	1007.11
345.5	1015.22
345.724	1024.88
345.948	1036.37
346.172	1047.44
346.396	1058.11
346.62	1069.46
346.844	1079.28
347.068	1091.17
347.292	1100.46
347.515	1108.95
347.739	1122.26
347.963	1131.58
348.187	1143.11
348.411	1151.73
348.635	1163.37
348.859	1173.49
349.082	1183.04
349.306	1192.44
349.53	1202.51
349.754	1213.68
349.977	1226.08
350.201	1233.98
350.425	1245.55
350.649	1257.06
350.872	1268.22
351.096	1278.64
351.32	1290.66
351.543	1302.44
351.767	1315.2
351.99	1326.29
352.214	1337.06
352.438	1347.44
352.661	1359.02
352.885	1370.66
353.108	1382.51
353.332	1394.37
353.555	1406.88
353.779	1419.06
354.002	1430.44
354.226	1440.15
354.449	1451.4
354.673	1462.11
354.896	1476.69
355.12	1488.24
355.343	1502.06
355.566	1515.49
355.79	1529.24
356.013	1541.84
356.237	1550.89
356.46	1561.86
356.683	1575.68
356.907	1588.53
357.13	1602.44
357.353	1614.29
357.576	1627.35
357.8	1639.35
358.023	1650.84
358.246	1662.48
358.469	1674.15
358.693	1689.24
358.916	1702.08
359.139	1715.04
359.362	1727.11
359.585	1739.53
359.808	1752.8
360.031	1767.11
360.255	1779
360.478	1791.91
360.701	1804.31
360.924	1820
361.147	1834.53
361.37	1848.8
361.593	1863.42
361.816	1877.62
362.039	1892.44
362.262	1904.26
362.485	1916.62
362.708	1931.26
362.931	1943.89
363.154	1956.66
363.377	1969.57
363.599	1982.71
363.822	1999.64
364.045	2012.28
364.268	2024.64
364.491	2036.89
364.714	2051.38
364.936	2068.33
365.159	2081.26
365.382	2097.09
365.605	2113.58
365.828	2128.2
366.05	2142.66
366.273	2155.8
366.496	2174
366.718	2192.11
366.941	2209.24
367.164	2225.51
367.386	2240.35
367.609	2258.91
367.832	2274.11
368.054	2289.69
368.277	2305.26
368.5	2322.58
368.722	2337.68
368.945	2352.73
369.167	2370.35
369.39	2387.75
369.612	2405.37
369.835	2421.8
370.057	2436.57
370.28	2455.09
370.502	2471.42
370.725	2490.66
370.947	2504.62
371.169	2526
371.392	2541.73
371.614	2556.98
371.837	2572.53
372.059	2589.46
372.281	2606.11
372.504	2624.22
372.726	2640.8
372.948	2660.2
373.171	2673.73
373.393	2694.64
373.615	2711.46
373.837	2727.06
374.06	2746.17
374.282	2764.88
374.504	2781.51
374.726	2801.22
374.948	2820.02
375.17	2838.28
375.393	2855.82
375.615	2876.4
375.837	2895.13
376.059	2912.13
376.281	2932.75
376.503	2953.73
376.725	2977.22
376.947	2998.4
377.169	3019.88
377.391	3040.11
377.613	3060.68
377.835	3081.24
378.057	3104.62
378.279	3124.49
378.501	3145.04
378.723	3166.8
378.945	3185.77
379.167	3205.29
379.389	3229.93
379.611	3250.57
379.833	3274.53
380.054	3299.26
380.276	3323.78
380.498	3344.13
380.72	3369.58
380.942	3396.78
381.163	3423.6
381.385	3448.78
381.607	3471.69
381.829	3494.98
382.05	3519.37
382.272	3544.22
382.494	3568.64
382.716	3593.69
382.937	3618.6
383.159	3642.91
383.381	3668.66
383.602	3692
383.824	3719.08
384.045	3747.64
384.267	3773.95
384.488	3801.33
384.71	3828.62
384.932	3856.24
385.153	3884.97
385.375	3914.97
385.596	3943.69
385.818	3968.06
386.039	3994.66
386.261	4022.66
386.482	4051.02
386.703	4078
386.925	4105.17
387.146	4131.98
387.368	4160.17
387.589	4186.82
387.81	4218.06
388.032	4247.29
388.253	4280
388.474	4313.88
388.696	4342.93
388.917	4370.06
389.138	4401.95
389.359	4433.28
389.581	4464.84
389.802	4496.95
390.023	4528.13
390.244	4553.8
390.465	4582
390.687	4611.44
390.908	4641.2
391.129	4672.42
391.35	4705.09
391.571	4734.97
391.792	4765.17
392.013	4791.48
392.234	4820
392.455	4851.06
392.677	4885.11
392.898	4921.48
393.119	4954.55
393.34	4988.09
393.561	5020.31
393.782	5052.15
394.003	5083.71
394.223	5118.6
394.444	5156.44
394.665	5189.75
394.886	5223.49
395.107	5258.42
395.328	5288.15
395.549	5320.62
395.77	5351.66
395.99	5386.17
396.211	5424.53
396.432	5463.71
396.653	5496.17
396.874	5532.09
397.094	5566.57
397.315	5599.55
397.536	5631.88
397.757	5666.29
397.977	5699.58
398.198	5737.44
398.419	5775.57
398.639	5808.55
398.86	5837.51
399.081	5876.42
399.301	5908.31
399.522	5943.58
399.742	5978.84
399.963	6013.17
400.184	6050.29
400.404	6086.55
400.625	6122.77
400.845	6153.46
401.066	6184.84
401.286	6222.29
401.507	6255.73
401.727	6289.08
401.948	6326.58
402.168	6363.46
402.388	6397.57
402.609	6432.86
402.829	6467.57
403.05	6497.37
403.27	6533.46
403.49	6570.09
403.711	6604.09
403.931	6639.04
404.151	6673.33
404.372	6709.29
404.592	6745.46
404.812	6782.91
405.032	6818.88
405.253	6850.68
405.473	6887.75
405.693	6925.24
405.913	6960.38
406.133	6998.64
406.353	7037.4
406.574	7077.55
406.794	7111.18
407.014	7146.89
407.234	7182
407.454	7215.82
407.674	7255.95
407.894	7291.88
408.114	7328.44
408.334	7368.64
408.554	7408.8
408.774	7442.75
408.994	7478.04
409.214	7512.48
409.434	7549.8
409.654	7589.78
409.874	7624.93
410.094	7663.4
410.314	7702.64
410.534	7739.46
410.754	7773.66
410.974	7809.15
411.193	7849.18
411.413	7892.53
411.633	7934.24
411.853	7975.51
412.073	8010.82
412.292	8054.17
412.512	8091.75
412.732	8132.29
412.952	8175.13
413.171	8218.44
413.391	8257.78
413.611	8298.28
413.831	8336.44
414.05	8382.88
414.27	8424.44
414.489	8468.17
414.709	8513.77
414.929	8558.02
415.148	8599.58
415.368	8638.48
415.587	8681.77
415.807	8721.82
416.026	8762.53
416.246	8806.8
416.465	8842.64
416.685	8882.51
416.904	8929.04
417.124	8967.11
417.343	9009.88
417.563	9053.6
417.782	9096.22
418.002	9141.95
418.221	9185.64
418.44	9231.89
418.66	9270.35
418.879	9320.53
419.098	9365
419.318	9408.29
419.537	9457.62
419.756	9506.66
419.976	9553.69
420.195	9598.11
420.414	9640.62
420.633	9688.22
420.853	9730.02
421.072	9775.2
421.291	9814.2
421.51	9860.8
421.729	9903.04
421.948	9943.89
422.168	9986.02
422.387	10028.82
422.606	10073.73
422.825	10114.33
423.044	10157.95
423.263	10204.15
423.482	10252.91
423.701	10296.62
423.92	10335.58
424.139	10381.69
424.358	10419.86
424.577	10462.46
424.796	10505.53
425.015	10551.11
425.234	10603
425.453	10646.58
425.672	10692.86
425.891	10733.62
426.11	10784.33
426.328	10835.62
426.547	10879.08
426.766	10928.53
426.985	10973.33
427.204	11020.33
427.422	11059.69
427.641	11096.38
427.86	11148.17
428.079	11191.38
428.297	11243.69
428.516	11290.62
428.735	11339.13
428.954	11388.69
429.172	11440.73
429.391	11492.78
429.61	11541.06
429.828	11594.48
430.047	11649.91
430.265	11692.44
430.484	11740.88
430.703	11788.42
430.921	11830.95
431.14	11874.78
431.358	11920.66
431.577	11968.55
431.795	12012.51
432.014	12059.37
432.232	12111.91
432.451	12159.48
432.669	12205.04
432.887	12248.68
433.106	12297.31
433.324	12348.58
433.543	12397.58
433.761	12452.8
433.979	12502.42
434.198	12555.15
434.416	12599.86
434.634	12643.08
434.853	12689.4
435.071	12744.04
435.289	12792.95
435.507	12835.04
435.726	12880.2
435.944	12923.84
436.162	12966.86
436.38	13005.08
436.598	13044.44
436.817	13093.11
437.035	13141.15
437.253	13182.6
437.471	13229.86
437.689	13280.4
437.907	13332.22
438.125	13377.91
438.343	13424.29
438.561	13472.26
438.78	13524.31
438.998	13571.82
439.216	13623.66
439.434	13669.17
439.652	13722.75
439.869	13771.42
440.087	13818.08
440.305	13866.13
440.523	13911.49
440.741	13963.02
440.959	14011.09
441.177	14062.57
441.395	14116.88
441.613	14168.77
441.831	14215.2
442.048	14256.88
442.266	14298.97
442.484	14352.37
442.702	14398
442.919	14457.51
443.137	14504.02
443.355	14550.91
443.573	14600.38
443.79	14644.68
444.008	14684.91
444.226	14736.57
444.443	14782.77
444.661	14833
444.879	14873.06
445.096	14921.38
445.314	14964.55
445.532	15014.35
445.749	15061.28
445.967	15110.31
446.184	15162.48
446.402	15214.2
446.619	15265.29
446.837	15327.42
447.054	15378.73
447.272	15431.11
447.489	15477.18
447.707	15520.4
447.924	15569.09
448.141	15619.77
448.359	15664.31
448.576	15712.97
448.794	15762.44
449.011	15807.8
449.228	15850.31
449.446	15890.35
449.663	15938.26
449.88	15989.37
450.098	16044.98
450.315	16095.68
450.532	16142.37
450.749	16193.22
450.967	16237.31
451.184	16282.09
451.401	16332.62
451.618	16382.57
451.835	16435.48
452.052	16488.22
452.27	16538.29
452.487	16585.82
452.704	16633.55
452.921	16681.77
453.138	16724.44
453.355	16773.97
453.572	16824.95
453.789	16870.48
454.006	16915.73
454.223	16967.08
454.44	17011.38
454.657	17060.24
454.874	17105.24
455.091	17151.53
455.308	17206.71
