Data from test1_MAYP1115451__50__10-14-54-681.txt Node

Date: Wed Jun 12 10:14:54 MDT 2024
User: Modes Lab
Spectrometer: MAYP111545
Trigger mode: 0
Integration Time (sec): 8.000000E-3
Scans to average: 5
Electric dark correction enabled: true
Nonlinearity correction enabled: false
Boxcar width: 5
XAxis mode: Wavelengths
Number of Pixels in Spectrum: 2068
>>>>>Begin Spectral Data<<<<<
165.214	164.57
165.449	163.98
165.683	173.04
165.918	181.76
166.152	188.49
166.387	193.3
166.621	125.03
166.856	163.67
167.09	182.12
167.325	205.38
167.559	221.72
167.794	236.7
168.028	243.52
168.263	244.41
168.497	244.39
168.732	244.92
168.966	246.74
169.2	248.74
169.435	250.27
169.669	252.61
169.903	255.18
170.138	256.83
170.372	256.7
170.606	258.54
170.841	260.54
171.075	262.78
171.309	265.05
171.544	266.03
171.778	267.81
172.012	269.61
172.246	271.36
172.48	272.67
172.715	274.1
172.949	276.94
173.183	279.58
173.417	281.81
173.651	282.65
173.885	283.45
174.119	284.7
174.354	285.05
174.588	285.27
174.822	285.5
175.056	284.27
175.29	284.34
175.524	283.83
175.758	284.38
175.992	283.81
176.226	284.54
176.46	285.03
176.694	285.43
176.928	286.27
177.162	287.5
177.396	288.3
177.63	290.54
177.864	291.3
178.097	292.87
178.331	293.18
178.565	294.41
178.799	295.1
179.033	295.67
179.267	296.39
179.5	297.03
179.734	297.67
179.968	298.48
180.202	299.18
180.436	299.76
180.669	300.74
180.903	301.21
181.137	301.87
181.371	302.79
181.604	303.9
181.838	304.99
182.072	305.54
182.305	306.43
182.539	307.25
182.772	307.98
183.006	309.99
183.24	309.94
183.473	314.39
183.707	314.52
183.94	315.72
184.174	316.87
184.408	318.03
184.641	319.87
184.875	320.67
185.108	322.01
185.342	323.54
185.575	324.54
185.808	326.41
186.042	325.28
186.275	327.52
186.509	328.72
186.742	330.47
186.976	331.99
187.209	332.58
187.442	334.9
187.676	335.34
187.909	336.28
188.142	338.23
188.376	339.74
188.609	341.28
188.842	342.48
189.076	343.3
189.309	343.79
189.542	344.38
189.775	346.25
190.009	347.19
190.242	349.25
190.475	351.88
190.708	353.19
190.941	354.78
191.174	356.18
191.408	359.1
191.641	360.56
191.874	362.68
192.107	365.76
192.34	367.16
192.573	369.43
192.806	371.21
193.039	372.72
193.272	373.83
193.505	375.05
193.738	376.54
193.971	376.88
194.204	379.19
194.437	380.52
194.67	381.96
194.903	384.08
195.136	385.96
195.369	388.12
195.602	389.3
195.835	391.25
196.068	394.45
196.301	396.16
196.533	399.3
196.766	400.61
196.999	403.47
197.232	405.67
197.465	407.23
197.698	408.88
197.93	411.18
198.163	412.92
198.396	415.88
198.629	417.19
198.861	419.54
199.094	420.76
199.327	424.25
199.559	426.52
199.792	428.63
200.025	431.39
200.257	432.9
200.49	434.98
200.723	438.32
200.955	439.36
201.188	440.81
201.42	444.34
201.653	446.83
201.886	449.14
202.118	450.16
202.351	451.98
202.583	455.07
202.816	458.72
203.048	461.25
203.281	462.38
203.513	465.27
203.745	468.28
203.978	470.01
204.21	472.78
204.443	474.28
204.675	477.45
204.907	480.14
205.14	481.61
205.372	483.05
205.605	484.61
205.837	487.98
206.069	491.01
206.302	492.98
206.534	494.52
206.766	494.9
206.998	497.19
207.231	499.87
207.463	501.78
207.695	505.72
207.927	507.87
208.159	511.67
208.392	513.67
208.624	514.92
208.856	516.78
209.088	519.99
209.32	523.28
209.552	525.96
209.784	527.52
210.017	528.78
210.249	529.54
210.481	531.61
210.713	532.08
210.945	533.88
211.177	534.87
211.409	537.03
211.641	537.03
211.873	539.18
212.105	540.98
212.337	542.72
212.569	544.45
212.801	546.41
213.033	547.7
213.264	550.01
213.496	552.36
213.728	556.34
213.96	558.78
214.192	561.28
214.424	562.92
214.656	564.68
214.887	567.38
215.119	570.7
215.351	572.67
215.583	574.99
215.815	576.01
216.046	577.67
216.278	578.83
216.51	580.58
216.741	583.5
216.973	585.14
217.205	586.83
217.436	587.76
217.668	589.9
217.9	591.48
218.131	591.96
218.363	594.67
218.595	596.07
218.826	597.38
219.058	598.92
219.289	598.72
219.521	599.59
219.752	600.12
219.984	600.72
220.215	600.36
220.447	601.39
220.678	604.25
220.91	606.05
221.141	606.67
221.373	608.56
221.604	610.34
221.836	612.72
222.067	615.81
222.298	618.38
222.53	619.61
222.761	621.7
222.993	622.39
223.224	624.14
223.455	623.88
223.686	625.28
223.918	624.14
224.149	625.25
224.38	625.34
224.612	624.81
224.843	624.87
225.074	625.59
225.305	625.18
225.536	627.08
225.768	626.38
225.999	627.74
226.23	629.23
226.461	630.58
226.692	630.88
226.923	632.08
227.155	633.85
227.386	635.1
227.617	635.54
227.848	638.05
228.079	637.59
228.31	638.52
228.541	638.61
228.772	637.74
229.003	638.34
229.234	638.52
229.465	636.54
229.696	636.23
229.927	635.18
230.158	636.43
230.389	634.74
230.62	635.36
230.85	634.07
231.081	633.45
231.312	633.54
231.543	634.48
231.774	634.38
232.005	637.01
232.236	636.39
232.466	638.16
232.697	637.18
232.928	638.28
233.159	636.28
233.389	637.7
233.62	638.03
233.851	638.25
234.082	637.54
234.312	636.92
234.543	635.7
234.774	636.18
235.004	634.27
235.235	634.99
235.466	634.16
235.696	634.88
235.927	635.14
236.157	635.07
236.388	634.05
236.618	635.27
236.849	635.88
237.08	635.68
237.31	634.45
237.541	634.9
237.771	633.63
238.002	634.67
238.232	634.88
238.463	634.43
238.693	635.23
238.923	635.67
239.154	633.96
239.384	632.99
239.615	632.98
239.845	632.12
240.075	630.94
240.306	631.01
240.536	628.83
240.766	627.21
240.997	626.48
241.227	626.56
241.457	625.48
241.687	625.78
241.918	626.1
242.148	626.23
242.378	626.3
242.608	626.27
242.839	625.87
243.069	626.01
243.299	626.61
243.529	627.67
243.759	626.47
243.989	625.92
244.22	625.45
244.45	624.21
244.68	623.83
244.91	624.08
245.14	623.32
245.37	623.16
245.6	623.5
245.83	623.16
246.06	622.18
246.29	621.61
246.52	621.34
246.75	620.1
246.98	620.19
247.21	617.61
247.44	616.61
247.67	615.3
247.9	615.99
248.13	614.48
248.359	614.98
248.589	613.58
248.819	612.68
249.049	612.08
249.279	611.79
249.509	610.28
249.738	611.23
249.968	610.99
250.198	611.05
250.428	608.41
250.657	607.14
250.887	606.23
251.117	606.65
251.347	606.03
251.576	606.68
251.806	606.32
252.036	605.67
252.265	605.58
252.495	604.68
252.725	604.38
252.954	604.03
253.184	604.27
253.413	603.14
253.643	601.18
253.873	600.19
254.102	598.27
254.332	597.45
254.561	597.14
254.791	595.61
255.02	594.98
255.25	594.45
255.479	594.16
255.708	594.36
255.938	593.21
256.167	591.79
256.397	592.01
256.626	590.12
256.856	589.9
257.085	590.48
257.314	590.65
257.544	590.85
257.773	590.98
258.002	590.67
258.232	589.18
258.461	590.1
258.69	590.19
258.919	587.87
259.149	588.98
259.378	587.56
259.607	587.23
259.836	586.08
260.065	584.27
260.295	582.88
260.524	582.21
260.753	581.38
260.982	579.96
261.211	580.47
261.44	580.25
261.669	579.58
261.899	578.61
262.128	576.92
262.357	575.79
262.586	574.87
262.815	574.45
263.044	573.25
263.273	575.76
263.502	575.19
263.731	571.94
263.96	572.72
264.189	570.74
264.418	570.27
264.646	568.39
264.875	567.83
265.104	568.67
265.333	567.27
265.562	567.21
265.791	563.74
266.02	562.34
266.249	562.45
266.477	560.58
266.706	560.03
266.935	558.98
267.164	559.47
267.393	559.41
267.621	557.54
267.85	557.68
268.079	555.99
268.307	554.98
268.536	553.78
268.765	553.92
268.993	554.23
269.222	555.07
269.451	554.83
269.679	553.76
269.908	553.59
270.137	554.23
270.365	551.98
270.594	553.34
270.822	552.81
271.051	553.41
271.279	552.94
271.508	552.81
271.736	553.38
271.965	553.63
272.193	555.07
272.422	554.23
272.65	554.01
272.879	554.99
273.107	554.25
273.336	553.98
273.564	553.48
273.792	551.25
274.021	549.61
274.249	548.16
274.477	546.52
274.706	543.63
274.934	542.25
275.162	539.98
275.391	538.61
275.619	537.12
275.847	536.39
276.075	534.79
276.304	535.79
276.532	535.96
276.76	535.12
276.988	534.32
277.216	533.48
277.445	531.94
277.673	532.32
277.901	533.14
278.129	532.25
278.357	530.28
278.585	529.88
278.813	528.76
279.041	526.16
279.269	525.5
279.497	525.27
279.725	525.38
279.954	525.07
280.182	524.08
280.41	522.81
280.637	521.47
280.865	522.63
281.093	522.18
281.321	521.78
281.549	521.65
281.777	521.39
282.005	521.88
282.233	521.45
282.461	522.5
282.689	522.27
282.916	521.48
283.144	521.27
283.372	520.39
283.6	520.32
283.828	518.14
284.055	517.59
284.283	517.96
284.511	515.9
284.739	515.12
284.966	513.3
285.194	511.92
285.422	509.9
285.649	509.83
285.877	508.25
286.105	507.72
286.332	508.41
286.56	508.87
286.788	506.25
287.015	506.61
287.243	505.52
287.47	505.12
287.698	504.16
287.925	505.23
288.153	504.5
288.381	504.48
288.608	503.03
288.836	503.08
289.063	502.08
289.29	501.85
289.518	500.45
289.745	500.1
289.973	499.58
290.2	500.28
290.428	499.3
290.655	499.1
290.882	497.54
291.11	497.38
291.337	495.99
291.564	496.52
291.792	495.85
292.019	496.27
292.246	496.61
292.473	495.74
292.701	495.58
292.928	495.78
293.155	494.1
293.382	494.83
293.61	494.18
293.837	493.5
294.064	491.88
294.291	490.54
294.518	489.59
294.745	487.59
294.972	486.5
295.2	484.9
295.427	484.19
295.654	484.47
295.881	483.28
296.108	482.79
296.335	482.59
296.562	483.03
296.789	483.7
297.016	483.16
297.243	483.43
297.47	483.39
297.697	483.78
297.924	483.03
298.151	481.87
298.378	482.01
298.604	481.52
298.831	481.14
299.058	479.19
299.285	479.18
299.512	478.27
299.739	478.16
299.966	477.78
300.192	475.96
300.419	474.28
300.646	474.72
300.873	474.63
301.099	473.92
301.326	473.47
301.553	473.19
301.78	473.19
302.006	472.48
302.233	471.41
302.46	471.59
302.686	472.23
302.913	473.36
303.14	472.74
303.366	471.5
303.593	470.58
303.819	469.87
304.046	469.14
304.272	467.87
304.499	467.92
304.725	467.34
304.952	466.18
305.179	465.05
305.405	465.99
305.631	464.5
305.858	465.68
306.084	466.85
306.311	467.27
306.537	467.63
306.764	467.45
306.99	467.67
307.216	468.45
307.443	469.01
307.669	468.1
307.895	466.59
308.122	466.83
308.348	465.87
308.574	464.16
308.801	463.94
309.027	464.72
309.253	463.5
309.479	462.67
309.706	462.59
309.932	462.9
310.158	463.39
310.384	463.23
310.61	463.3
310.837	462.41
311.063	463.01
311.289	461.79
311.515	460.3
311.741	460.9
311.967	460.43
312.193	459.16
312.419	458.27
312.645	457.78
312.871	456.81
313.097	457.47
313.323	457.85
313.549	457.25
313.775	457.94
314.001	458.79
314.227	459.07
314.453	459.63
314.679	459.94
314.905	460.56
315.131	460.83
315.357	461.96
315.583	461.67
315.809	462.58
316.034	463.34
316.26	464.68
316.486	464.74
316.712	464.98
316.938	464.74
317.163	465.07
317.389	465.43
317.615	466.14
317.841	466.81
318.066	468.05
318.292	467.67
318.518	467.56
318.743	466.94
318.969	467.18
319.195	467.88
319.42	469.43
319.646	471.68
319.872	472.54
320.097	474.03
320.323	473.87
320.548	474.1
320.774	476.32
320.999	479.16
321.225	481.3
321.45	482.5
321.676	483.07
321.901	483.63
322.127	484.38
322.352	485.81
322.578	487.74
322.803	490.54
323.029	492.61
323.254	492.43
323.479	493.32
323.705	494.18
323.93	495.52
324.155	499.34
324.381	502.1
324.606	503.74
324.831	505.88
325.057	507.47
325.282	508.76
325.507	510.48
325.732	514.21
325.958	516.59
326.183	518.76
326.408	520.76
326.633	523.23
326.858	525.39
327.084	527.5
327.309	529.74
327.534	531.92
327.759	533.88
327.984	537.72
328.209	539.45
328.434	543.59
328.659	547.88
328.884	551.19
329.109	552.72
329.334	556.27
329.559	559.67
329.784	563.58
330.009	567.41
330.234	571.07
330.459	574.61
330.684	579.23
330.909	581.58
331.134	584.59
331.359	588.76
331.584	593.39
331.809	597.34
332.034	601.45
332.259	604.36
332.483	607.79
332.708	613.05
332.933	617.65
333.158	622.25
333.383	628.12
333.607	633.38
333.832	638.54
334.057	643.12
334.282	648.96
334.506	655.7
334.731	660.99
334.956	667.54
335.18	672.87
335.405	677.45
335.63	683.03
335.854	687.9
336.079	693.18
336.303	698.43
336.528	704.01
336.753	708.23
336.977	712.92
337.202	721.21
337.426	728.48
337.651	734.94
337.875	740.68
338.1	746.39
338.324	752.05
338.549	758.83
338.773	767.68
338.997	774.81
339.222	783.39
339.446	790.5
339.671	797.72
339.895	805.16
340.119	812.3
340.344	820.63
340.568	830.79
340.792	838.96
341.017	847.05
341.241	853.28
341.465	862.08
341.689	869.05
341.914	876.05
342.138	883.92
342.362	890.98
342.586	898.85
342.811	907.59
343.035	914.41
343.259	922.48
343.483	932.63
343.707	942.28
343.931	951.81
344.155	961.05
344.38	970.01
344.604	978.3
344.828	987.43
345.052	997.5
345.276	1006.63
345.5	1016.28
345.724	1026.39
345.948	1034.48
346.172	1043.65
346.396	1052.07
346.62	1064.58
346.844	1076.99
347.068	1087.14
347.292	1097.59
347.515	1107.83
347.739	1118.79
347.963	1129.19
348.187	1140.59
348.411	1150.5
348.635	1160.88
348.859	1170.07
349.082	1177.83
349.306	1187.48
349.53	1198.38
349.754	1209.52
349.977	1221.68
350.201	1231.92
350.425	1242.52
350.649	1254.03
350.872	1265.81
351.096	1277.16
351.32	1291.08
351.543	1301.39
351.767	1312.68
351.99	1323.88
352.214	1333.18
352.438	1342.72
352.661	1355.43
352.885	1365.61
353.108	1375.08
353.332	1386.83
353.555	1397.85
353.779	1407.99
354.002	1422.81
354.226	1434.08
354.449	1445.5
354.673	1458.99
354.896	1473.43
355.12	1485.07
355.343	1499.23
355.566	1513.45
355.79	1524.81
356.013	1539.78
356.237	1552.85
356.46	1564.08
356.683	1575.76
356.907	1588.43
357.13	1601.39
357.353	1612.56
357.576	1624.14
357.8	1637.56
358.023	1650.63
358.246	1663.07
358.469	1674.32
358.693	1688.14
358.916	1701.14
359.139	1716.59
359.362	1729.61
359.585	1743.76
359.808	1756.88
360.031	1770.94
360.255	1783.78
360.478	1796.87
360.701	1811.34
360.924	1823.63
361.147	1836.38
361.37	1851.72
361.593	1864.32
361.816	1877.94
362.039	1890.23
362.262	1903.99
362.485	1917.61
362.708	1930.3
362.931	1943.01
363.154	1958.1
363.377	1974.32
363.599	1988.65
363.822	2001.28
364.045	2016.27
364.268	2030.98
364.491	2045.25
364.714	2058.92
364.936	2073.12
365.159	2086.58
365.382	2100.76
365.605	2114.32
365.828	2128.98
366.05	2141.47
366.273	2156.38
366.496	2171.36
366.718	2187.27
366.941	2203.14
367.164	2217.85
367.386	2233.74
367.609	2250.5
367.832	2267.74
368.054	2285.28
368.277	2301.47
368.5	2318.32
368.722	2334.48
368.945	2350.41
369.167	2367.41
369.39	2384.39
369.612	2401.34
369.835	2419.21
370.057	2436.94
370.28	2451.99
370.502	2469.39
370.725	2485.1
370.947	2503.67
371.169	2521.45
371.392	2540.03
371.614	2551.5
371.837	2566.92
372.059	2584.88
372.281	2599.25
372.504	2616.68
372.726	2634.32
372.948	2648.43
373.171	2667.32
373.393	2683.7
373.615	2700.25
373.837	2715.98
374.06	2738.72
374.282	2758.79
374.504	2776.34
374.726	2795.65
374.948	2814.25
375.17	2832.83
375.393	2854.67
375.615	2873.94
375.837	2894.94
376.059	2918.32
376.281	2938.9
376.503	2955.68
376.725	2976.16
376.947	2997.99
377.169	3018.28
377.391	3041.9
377.613	3063.7
377.835	3082.65
378.057	3102.38
378.279	3125.34
378.501	3142.03
378.723	3164.21
378.945	3187.94
379.167	3208.45
379.389	3230.36
379.611	3255.65
379.833	3273.63
380.054	3296.68
380.276	3320.28
380.498	3345.45
380.72	3366.16
380.942	3392.47
381.163	3416.5
381.385	3441.32
381.607	3466.81
381.829	3493.05
382.05	3515.23
382.272	3540.48
382.494	3567.58
382.716	3594.14
382.937	3619.67
383.159	3647.3
383.381	3673.58
383.602	3701.36
383.824	3730.07
384.045	3757.14
384.267	3784.67
384.488	3816.38
384.71	3845.25
384.932	3869.83
385.153	3899.7
385.375	3927.12
385.596	3957.39
385.818	3982.92
386.039	4006.43
386.261	4033.12
386.482	4059.25
386.703	4084.98
386.925	4111.21
387.146	4139.9
387.368	4166.1
387.589	4190.41
387.81	4217.3
388.032	4242.36
388.253	4271.36
388.474	4305.1
388.696	4337.03
388.917	4366.23
389.138	4392.45
389.359	4420.07
389.581	4449.52
389.802	4482.88
390.023	4515.01
390.244	4544.76
390.465	4576.52
390.687	4609.3
390.908	4635.92
391.129	4663.85
391.35	4698.41
391.571	4734.36
391.792	4765.5
392.013	4799.05
392.234	4830.32
392.455	4862.68
392.677	4893.88
392.898	4925.07
393.119	4957.1
393.34	4991.94
393.561	5023.76
393.782	5054.98
394.003	5085.99
394.223	5123.18
394.444	5151.14
394.665	5184.47
394.886	5215.92
395.107	5251.99
395.328	5285.16
395.549	5320.32
395.77	5355.12
395.99	5391.16
396.211	5424.68
396.432	5456.61
396.653	5487.21
396.874	5522.67
397.094	5555.3
397.315	5591.41
397.536	5625.16
397.757	5658.96
397.977	5694.01
398.198	5730.07
398.419	5764.25
398.639	5801.81
398.86	5840.23
399.081	5875.48
399.301	5916.07
399.522	5952.45
399.742	5988.5
399.963	6024.47
400.184	6062.36
400.404	6092.63
400.625	6125.19
400.845	6158.88
401.066	6189.7
401.286	6223.19
401.507	6257.81
401.727	6288.5
401.948	6321.9
402.168	6355.18
402.388	6388.76
402.609	6422.98
402.829	6461.34
403.05	6496.54
403.27	6531.16
403.49	6568.5
403.711	6607.52
403.931	6644.85
404.151	6681.78
404.372	6721.47
404.592	6756.96
404.812	6793.43
405.032	6825.18
405.253	6857.68
405.473	6893.83
405.693	6931.54
405.913	6964.92
406.133	6997.1
406.353	7037.65
406.574	7071.65
406.794	7108.63
407.014	7145.67
407.234	7180.76
407.454	7221.98
407.674	7261.83
407.894	7298.63
408.114	7332.67
408.334	7371.65
408.554	7411.85
408.774	7442.9
408.994	7482.38
409.214	7517.88
409.434	7557.59
409.654	7595.78
409.874	7634.25
410.094	7668.03
410.314	7702.43
410.534	7739.99
410.754	7775.43
410.974	7811.76
411.193	7853.52
411.413	7892.85
411.633	7931.16
411.853	7969.96
412.073	8010.3
412.292	8046.3
412.512	8087.14
412.732	8130.3
412.952	8173.28
413.171	8212.78
413.391	8253.23
413.611	8292.05
413.831	8332.52
414.05	8376.7
414.27	8418.98
414.489	8458.41
414.709	8499.83
414.929	8545.88
415.148	8590.48
415.368	8632.39
415.587	8679.43
415.807	8723.96
416.026	8769.16
416.246	8811.34
416.465	8845.76
416.685	8889.28
416.904	8936.76
417.124	8981.87
417.343	9024.88
417.563	9068.47
417.782	9109.5
418.002	9151.16
418.221	9199.96
418.44	9242.39
418.66	9287.16
418.879	9334.65
419.098	9376.18
419.318	9417.67
419.537	9466.23
419.756	9510.3
419.976	9551.01
420.195	9599.88
420.414	9644.28
420.633	9680.14
420.853	9720.88
421.072	9765.39
421.291	9814.52
421.51	9858.48
421.729	9901.39
421.948	9942.07
422.168	9982.83
422.387	10025.19
422.606	10065.52
422.825	10109.72
423.044	10151.76
423.263	10197.65
423.482	10237.92
423.701	10288.03
423.92	10333.12
424.139	10381.9
424.358	10420.78
424.577	10466.27
424.796	10515.65
425.015	10563.34
425.234	10608.61
425.453	10659.79
425.672	10705.19
425.891	10753.28
426.11	10788.54
426.328	10836.25
426.547	10879.05
426.766	10930.9
426.985	10977.47
427.204	11020.47
427.422	11067.94
427.641	11116.72
427.86	11157.81
428.079	11208.81
428.297	11255.47
428.516	11303.21
428.735	11347.48
428.954	11396.88
429.172	11447.99
429.391	11499.25
429.61	11547.27
429.828	11590.74
430.047	11640.45
430.265	11691.3
430.484	11733.61
430.703	11779.47
430.921	11833.01
431.14	11877.19
431.358	11925.23
431.577	11966.96
431.795	12014.99
432.014	12067.39
432.232	12124.45
432.451	12169.27
432.669	12215.14
432.887	12261.34
433.106	12309.32
433.324	12351.36
433.543	12399.58
433.761	12448.92
433.979	12498.7
434.198	12547.52
434.416	12595.08
434.634	12635.72
434.853	12680.96
435.071	12727.88
435.289	12774.48
435.507	12821.19
435.726	12863.39
435.944	12913.96
436.162	12959.52
436.38	13007.65
436.598	13051.39
436.817	13095.08
437.035	13142.52
437.253	13191.27
437.471	13242.96
437.689	13292.39
437.907	13343.7
438.125	13394.14
438.343	13440.68
438.561	13490.14
438.78	13532.32
438.998	13577.48
439.216	13624.68
439.434	13668.58
439.652	13714.25
439.869	13758.85
440.087	13805.74
440.305	13849.63
440.523	13897.81
440.741	13942.01
440.959	13981.76
441.177	14036.87
441.395	14086.36
441.613	14134.32
441.831	14187.61
442.048	14241.14
442.266	14288.3
442.484	14341.59
442.702	14392.07
442.919	14444.83
443.137	14496.34
443.355	14551.32
443.573	14596.45
443.79	14647.9
444.008	14697.5
444.226	14740.25
444.443	14791.56
444.661	14837.25
444.879	14881.65
445.096	14931.58
445.314	14982.08
445.532	15030.43
445.749	15081.79
445.967	15127.59
446.184	15175.47
446.402	15229.03
446.619	15279.38
446.837	15318.3
447.054	15375.23
447.272	15423.56
447.489	15466.87
447.707	15518.83
447.924	15569.81
448.141	15614.87
448.359	15657.63
448.576	15706.74
448.794	15749.98
449.011	15799.9
449.228	15853.79
449.446	15897.36
449.663	15943.54
449.88	15996.87
450.098	16041.81
450.315	16089.79
450.532	16142.05
450.749	16197.32
450.967	16245.1
451.184	16294.96
451.401	16342.67
451.618	16387.87
451.835	16437.47
452.052	16493.16
452.27	16545.85
452.487	16589.78
452.704	16632.54
452.921	16679.18
453.138	16723.27
453.355	16767.61
453.572	16818.76
453.789	16866.68
454.006	16919.07
454.223	16969.1
454.44	17018.72
