Data from test1_MAYP1115451__13__10-14-42-127.txt Node

Date: Wed Jun 12 10:14:42 MDT 2024
User: Modes Lab
Spectrometer: MAYP111545
Trigger mode: 0
Integration Time (sec): 8.000000E-3
Scans to average: 5
Electric dark correction enabled: true
Nonlinearity correction enabled: false
Boxcar width: 5
XAxis mode: Wavelengths
Number of Pixels in Spectrum: 2068
>>>>>Begin Spectral Data<<<<<
165.214	161.03
165.449	161.2
165.683	169.55
165.918	178.84
166.152	185.64
166.387	191.07
166.621	123.84
166.856	163.11
167.09	182.24
167.325	206.16
167.559	223.04
167.794	238.09
168.028	246.05
168.263	247.71
168.497	247.33
168.732	247.64
168.966	248.75
169.2	249.24
169.435	250.2
169.669	251.51
169.903	252.62
170.138	254.24
170.372	255.02
170.606	256.25
170.841	257.16
171.075	259.29
171.309	261.56
171.544	261.67
171.778	263.53
172.012	265.22
172.246	266.09
172.48	268.22
172.715	270.09
172.949	272.71
173.183	275.05
173.417	277.69
173.651	278.64
173.885	279.24
174.119	280.75
174.354	281.2
174.588	281.29
174.822	282.62
175.056	281.65
175.29	281.71
175.524	282.16
175.758	282.13
175.992	281.16
176.226	281.04
176.46	281.4
176.694	282.96
176.928	284.02
177.162	285.02
177.396	285.09
177.63	286.42
177.864	287.62
178.097	288.53
178.331	289.38
178.565	291.53
178.799	292.38
179.033	293.15
179.267	294.18
179.5	294.96
179.734	295.87
179.968	296.45
180.202	297.25
180.436	298.11
180.669	298.6
180.903	299.07
181.137	299.22
181.371	300.42
181.604	301.6
181.838	301.95
182.072	303
182.305	304.29
182.539	306.2
182.772	307.69
183.006	308.67
183.24	309.18
183.473	312.93
183.707	314.11
183.94	315.15
184.174	315.89
184.408	317.36
184.641	318.36
184.875	319.24
185.108	319.87
185.342	320.76
185.575	322.82
185.808	324.13
186.042	323.38
186.275	324.73
186.509	326.4
186.742	328.16
186.976	329.6
187.209	330.75
187.442	332.91
187.676	334
187.909	335.87
188.142	335.89
188.376	337.62
188.609	338.53
188.842	340.62
189.076	341.55
189.309	343.35
189.542	342.93
189.775	344.8
190.009	346.42
190.242	348.36
190.475	348.56
190.708	351
190.941	352.25
191.174	354.44
191.408	355.09
191.641	357.18
191.874	358.6
192.107	362.67
192.34	364.25
192.573	365.85
192.806	367.24
193.039	369.8
193.272	370.85
193.505	373.76
193.738	375.76
193.971	379.15
194.204	381.18
194.437	382.56
194.67	383.78
194.903	385.49
195.136	386.82
195.369	389.18
195.602	390.78
195.835	393.64
196.068	395.33
196.301	395.8
196.533	397.84
196.766	399.82
196.999	402.24
197.232	404.16
197.465	406.42
197.698	408.49
197.93	410.25
198.163	412.4
198.396	414.25
198.629	415.84
198.861	418.64
199.094	419.96
199.327	422.58
199.559	423.35
199.792	425.07
200.025	426.42
200.257	428.07
200.49	430.6
200.723	433.42
200.955	434.84
201.188	437.02
201.42	438.91
201.653	442.87
201.886	445.4
202.118	448.96
202.351	451.67
202.583	454.98
202.816	458.04
203.048	460.51
203.281	462.33
203.513	465.04
203.745	468.65
203.978	471.53
204.21	472.64
204.443	474.47
204.675	476.76
204.907	478.8
205.14	480.89
205.372	483.13
205.605	486
205.837	488.13
206.069	489.96
206.302	490.71
206.534	491.6
206.766	493.82
206.998	495.42
207.231	497.44
207.463	498.65
207.695	501.45
207.927	502.98
208.159	505.13
208.392	507.11
208.624	510.05
208.856	512.65
209.088	516.36
209.32	518.22
209.552	519.64
209.784	522.76
210.017	525.62
210.249	527.42
210.481	531.13
210.713	532.53
210.945	535.31
211.177	537.15
211.409	538.64
211.641	540.09
211.873	541.05
212.105	543.4
212.337	544.65
212.569	547.49
212.801	550.25
213.033	552.62
213.264	554.53
213.496	557.02
213.728	559.65
213.96	561.84
214.192	562.62
214.424	564.84
214.656	567.62
214.887	569.58
215.119	571.18
215.351	572.22
215.583	572.78
215.815	576.69
216.046	577.85
216.278	578.91
216.51	579.85
216.741	582.96
216.973	585.44
217.205	587.15
217.436	588.15
217.668	590.38
217.9	592.16
218.131	592.2
218.363	592.02
218.595	593.51
218.826	594.71
219.058	597.64
219.289	599.56
219.521	599.96
219.752	600.82
219.984	602.96
220.215	604.11
220.447	604.42
220.678	606.27
220.91	606.11
221.141	607.09
221.373	609.05
221.604	609.04
221.836	609.89
222.067	611.95
222.298	614.05
222.53	613.38
222.761	613.8
222.993	614.69
223.224	615.89
223.455	617.53
223.686	618.67
223.918	618.49
224.149	620.05
224.38	620.6
224.612	620.2
224.843	619.67
225.074	622.04
225.305	623.24
225.536	625.05
225.768	626
225.999	627.35
226.23	628.02
226.461	628.49
226.692	627.87
226.923	628.33
227.155	631.2
227.386	633.09
227.617	633.31
227.848	633.13
228.079	634.36
228.31	634.02
228.541	634.15
228.772	633.35
229.003	633.85
229.234	634.8
229.465	634.45
229.696	632.95
229.927	630.36
230.158	630.02
230.389	629.56
230.62	628.6
230.85	629.53
231.081	628.82
231.312	630.22
231.543	630.69
231.774	631.35
232.005	631.45
232.236	632.04
232.466	633.62
232.697	633.75
232.928	634.35
233.159	633.36
233.389	633.42
233.62	632.93
233.851	632.64
234.082	633.76
234.312	633.51
234.543	633.45
234.774	632.51
235.004	632.93
235.235	633.45
235.466	633.38
235.696	635
235.927	634.71
236.157	635.07
236.388	634.44
236.618	633.85
236.849	633.69
237.08	633.93
237.31	634.29
237.541	634.05
237.771	633.09
238.002	632.75
238.232	630.82
238.463	630.93
238.693	631.47
238.923	630.24
239.154	629.71
239.384	628.73
239.615	629.76
239.845	629.76
240.075	628.96
240.306	630.09
240.536	630.55
240.766	630.25
240.997	630.11
241.227	629.44
241.457	631.16
241.687	630.65
241.918	632.27
242.148	630.07
242.378	628.53
242.608	628.91
242.839	627.11
243.069	625.47
243.299	625.05
243.529	624.82
243.759	624.8
243.989	622.67
244.22	622.02
244.45	619.95
244.68	620.02
244.91	620.67
245.14	619.4
245.37	620.64
245.6	619.85
245.83	620.33
246.06	618.51
246.29	617.89
246.52	617.91
246.75	618.04
246.98	616.89
247.21	615.67
247.44	614.22
247.67	614.53
247.9	612.31
248.13	611.58
248.359	611.22
248.589	611.18
248.819	610.69
249.049	609.07
249.279	607.82
249.509	607.84
249.738	607.6
249.968	608.16
250.198	605.53
250.428	604.89
250.657	604.18
250.887	603.15
251.117	602.78
251.347	600.91
251.576	601.49
251.806	600.64
252.036	600.22
252.265	599.89
252.495	598.84
252.725	598.36
252.954	598.31
253.184	597.56
253.413	596.82
253.643	596.56
253.873	596.69
254.102	595.76
254.332	595.45
254.561	594.2
254.791	593.33
255.02	592.85
255.25	592.76
255.479	592.53
255.708	593.35
255.938	592.45
256.167	590.49
256.397	589.75
256.626	589.16
256.856	588
257.085	588.65
257.314	588.55
257.544	587.36
257.773	587.62
258.002	586.85
258.232	586.45
258.461	587.02
258.69	586.65
258.919	586.04
259.149	584.82
259.378	584.67
259.607	584.07
259.836	583.15
260.065	581.78
260.295	580.73
260.524	579.22
260.753	578.18
260.982	576.98
261.211	577.16
261.44	577
261.669	576.96
261.899	576.65
262.128	574.91
262.357	573.69
262.586	574.15
262.815	573.76
263.044	574.07
263.273	575.24
263.502	574.6
263.731	572.67
263.96	571.53
264.189	569.76
264.418	567.25
264.646	565.67
264.875	564.29
265.104	563.02
265.333	560.82
265.562	559.49
265.791	556.87
266.02	555.8
266.249	554.93
266.477	554.35
266.706	554.31
266.935	553.95
267.164	553.96
267.393	554
267.621	553.07
267.85	553.18
268.079	553.02
268.307	552.75
268.536	551.11
268.765	550.53
268.993	549.38
269.222	549.2
269.451	549.22
269.679	549.65
269.908	549.82
270.137	549.42
270.365	550.24
270.594	548.47
270.822	547.73
271.051	549.16
271.279	549.25
271.508	549.78
271.736	550.33
271.965	550.93
272.193	550.78
272.422	550.09
272.65	549.65
272.879	547.65
273.107	548.05
273.336	548.96
273.564	548.78
273.792	547.24
274.021	547.55
274.249	545.95
274.477	543.64
274.706	542.49
274.934	540.73
275.162	539.76
275.391	540.33
275.619	539.13
275.847	536.27
276.075	533.8
276.304	533.4
276.532	531.09
276.76	529.89
276.988	529.73
277.216	529.36
277.445	530.22
277.673	529.25
277.901	528.4
278.129	528.6
278.357	527.29
278.585	526.93
278.813	526.8
279.041	526.51
279.269	526.71
279.497	526.31
279.725	524.89
279.954	523.91
280.182	524.67
280.41	523.33
280.637	521.95
280.865	522.42
281.093	522.62
281.321	521.85
281.549	520.73
281.777	520.69
282.005	520.27
282.233	519.67
282.461	518.45
282.689	515.78
282.916	515.96
283.144	515.65
283.372	515.44
283.6	515.13
283.828	515.24
284.055	515.42
284.283	513.96
284.511	513.04
284.739	512.93
284.966	512.69
285.194	513.64
285.422	512.11
285.649	510.93
285.877	510.85
286.105	510.24
286.332	510.45
286.56	510.07
286.788	510.09
287.015	509.82
287.243	509.33
287.47	508.87
287.698	507.75
287.925	507.27
288.153	507.96
288.381	506.55
288.608	504.71
288.836	503.33
289.063	502.69
289.29	501.4
289.518	500.75
289.745	498.85
289.973	498.42
290.2	499.42
290.428	498.36
290.655	497
290.882	497.2
291.11	497.16
291.337	496.91
291.564	495.75
291.792	495.4
292.019	495.11
292.246	495.6
292.473	494.89
292.701	492.55
292.928	493.44
293.155	493.36
293.382	492.04
293.61	491.67
293.837	491.65
294.064	490.87
294.291	489.18
294.518	488.18
294.745	487.18
294.972	486.85
295.2	486.69
295.427	485.49
295.654	484.85
295.881	484.91
296.108	484.31
296.335	482.2
296.562	483.04
296.789	483.55
297.016	482.67
297.243	482.91
297.47	482.85
297.697	481.89
297.924	481.64
298.151	481.55
298.378	479.62
298.604	478.69
298.831	479.45
299.058	477.78
299.285	477.67
299.512	476.55
299.739	475.53
299.966	474.07
300.192	473.38
300.419	473.13
300.646	472.2
300.873	471.91
301.099	471.27
301.326	470.4
301.553	470.6
301.78	470.47
302.006	470.31
302.233	469.6
302.46	469.35
302.686	469.96
302.913	469.96
303.14	468.96
303.366	469.89
303.593	469.31
303.819	469.18
304.046	468.58
304.272	467.6
304.499	467.62
304.725	468.6
304.952	468.51
305.179	468
305.405	466.98
305.631	466.75
305.858	465.89
306.084	465.58
306.311	466.09
306.537	465.53
306.764	465.71
306.99	465.47
307.216	463.98
307.443	463.33
307.669	464.38
307.895	464.05
308.122	462.96
308.348	462.67
308.574	462.98
308.801	462.13
309.027	462.98
309.253	462.55
309.479	462.38
309.706	461.96
309.932	461.76
310.158	460.98
310.384	461.02
310.61	462.25
310.837	461.31
311.063	460.51
311.289	459.64
311.515	458.62
311.741	458.55
311.967	459.78
312.193	459.35
312.419	459.73
312.645	458.58
312.871	458.75
313.097	458.64
313.323	459.27
313.549	460.33
313.775	460.85
314.001	460.75
314.227	460.58
314.453	460.36
314.679	461.24
314.905	461.24
315.131	461.95
315.357	462.31
315.583	461.82
315.809	461.84
316.034	461.24
316.26	461.65
316.486	462.91
316.712	463.09
316.938	462.58
317.163	463.95
317.389	463.69
317.615	464.84
317.841	465.31
318.066	467.42
318.292	468.22
318.518	468.91
318.743	468.6
318.969	468.8
319.195	469.36
319.42	470.6
319.646	470.8
319.872	472.16
320.097	473.07
320.323	473.2
320.548	474.24
320.774	475.07
320.999	476.22
321.225	477.49
321.45	478.8
321.676	480.67
321.901	481.71
322.127	482.69
322.352	483.58
322.578	484.42
322.803	485.76
323.029	486.69
323.254	487.96
323.479	489.4
323.705	490.96
323.93	492.84
324.155	494.89
324.381	496.55
324.606	498.33
324.831	501.38
325.057	503.69
325.282	506.62
325.507	508.65
325.732	512.2
325.958	514.42
326.183	517.58
326.408	519
326.633	523.27
326.858	526.49
327.084	529.45
327.309	531.85
327.534	534.2
327.759	537.13
327.984	540.07
328.209	541.85
328.434	545.18
328.659	547.87
328.884	551.58
329.109	551.89
329.334	554
329.559	557.05
329.784	560.45
330.009	564.44
330.234	568.55
330.459	571.38
330.684	574.8
330.909	578.16
331.134	581.8
331.359	585.53
331.584	590.87
331.809	595.29
332.034	599.18
332.259	604.64
332.483	609.33
332.708	614.73
332.933	621.27
333.158	625.89
333.383	631.84
333.607	636.76
333.832	641.18
334.057	645.36
334.282	652.31
334.506	657.02
334.731	661.6
334.956	667.09
335.18	670.29
335.405	674.71
335.63	680.78
335.854	686.02
336.079	691.64
336.303	697.62
336.528	703.98
336.753	708.11
336.977	716.07
337.202	721.47
337.426	726.25
337.651	733.35
337.875	739.2
338.1	746.25
338.324	752.64
338.549	759.95
338.773	767.73
338.997	775.91
339.222	783.09
339.446	789.13
339.671	797.44
339.895	806.02
340.119	811.78
340.344	818.89
340.568	827.18
340.792	836.04
341.017	843.6
341.241	852.2
341.465	859.13
341.689	868.67
341.914	875.8
342.138	882.36
342.362	891.11
342.586	900
342.811	908.64
343.035	917.8
343.259	925.91
343.483	934.93
343.707	941.36
343.931	950.69
344.155	959.35
344.38	969.89
344.604	981.11
344.828	989.31
345.052	998.4
345.276	1007.67
345.5	1014.93
345.724	1023.58
345.948	1031.82
346.172	1043.71
346.396	1052.36
346.62	1064.96
346.844	1074.05
347.068	1082.75
347.292	1093.33
347.515	1104.58
347.739	1117.29
347.963	1129.6
348.187	1140.65
348.411	1151.8
348.635	1161.71
348.859	1172.2
349.082	1177.93
349.306	1189.04
349.53	1198.69
349.754	1209.13
349.977	1218.76
350.201	1227.67
350.425	1238.35
350.649	1249.53
350.872	1261.05
351.096	1271.2
351.32	1281.67
351.543	1295.4
351.767	1308.51
351.99	1321.82
352.214	1331
352.438	1344.91
352.661	1355.85
352.885	1366.8
353.108	1377.91
353.332	1389.38
353.555	1403.25
353.779	1417.45
354.002	1427.96
354.226	1438.42
354.449	1451.51
354.673	1467.35
354.896	1477.84
355.12	1490.51
355.343	1501.65
355.566	1515.22
355.79	1527.18
356.013	1538.87
356.237	1549.47
356.46	1565.04
356.683	1578.18
356.907	1586.85
357.13	1597.6
357.353	1610.51
357.576	1623.58
357.8	1637.69
358.023	1647.67
358.246	1662.67
358.469	1677.13
358.693	1689.93
358.916	1701.2
359.139	1713.73
359.362	1728.55
359.585	1742.11
359.808	1754.51
360.031	1767.24
360.255	1779.16
360.478	1793.78
360.701	1805.15
360.924	1814.25
361.147	1829.33
361.37	1841.36
361.593	1855.16
361.816	1866.84
362.039	1879.58
362.262	1894.11
362.485	1907.49
362.708	1922.73
362.931	1937.85
363.154	1951.24
363.377	1968.62
363.599	1980.33
363.822	1994.64
364.045	2009.69
364.268	2027.53
364.491	2041.44
364.714	2055.04
364.936	2068.89
365.159	2084.35
365.382	2096.15
365.605	2112.62
365.828	2127.11
366.05	2145.93
366.273	2162.07
366.496	2176.2
366.718	2191.04
366.941	2208.8
367.164	2225.93
367.386	2243.6
367.609	2258.69
367.832	2277.51
368.054	2292.07
368.277	2306.78
368.5	2321.05
368.722	2336.33
368.945	2352.22
369.167	2368.53
369.39	2386.11
369.612	2401.18
369.835	2417.55
370.057	2433.89
370.28	2448.67
370.502	2466.89
370.725	2483.11
370.947	2499.38
371.169	2520.8
371.392	2536.24
371.614	2553.98
371.837	2568.89
372.059	2588.55
372.281	2608.35
372.504	2627.35
372.726	2647.07
372.948	2666.67
373.171	2686.64
373.393	2703.84
373.615	2717.53
373.837	2738
374.06	2755.62
374.282	2774.24
374.504	2793.31
374.726	2808.16
374.948	2826.49
375.17	2843
375.393	2858.62
375.615	2876.24
375.837	2897.75
376.059	2917.45
376.281	2934.27
376.503	2953.2
376.725	2973.67
376.947	2990.02
377.169	3010.55
377.391	3028.62
377.613	3052
377.835	3072.87
378.057	3093.2
378.279	3113.38
378.501	3134.09
378.723	3158.75
378.945	3180.22
379.167	3202.87
379.389	3226.31
379.611	3249.85
379.833	3273.93
380.054	3295.76
380.276	3319.6
380.498	3346.25
380.72	3370.36
380.942	3396.13
381.163	3421.42
381.385	3447.2
381.607	3472.33
381.829	3497.58
382.05	3522.78
382.272	3547.67
382.494	3572.82
382.716	3601.11
382.937	3624.02
383.159	3653.55
383.381	3678.89
383.602	3706.05
383.824	3731.78
384.045	3757.15
384.267	3782.89
384.488	3807.51
384.71	3836.51
384.932	3863.27
385.153	3887.91
385.375	3920.47
385.596	3943.98
385.818	3970.58
386.039	3993.24
386.261	4020.25
386.482	4046.27
386.703	4076.09
386.925	4103.64
387.146	4128.84
387.368	4156
387.589	4186.76
387.81	4210.09
388.032	4241.82
388.253	4271.07
388.474	4302.85
388.696	4334.87
388.917	4364.67
389.138	4393.29
389.359	4426.8
389.581	4457.82
389.802	4489.84
390.023	4517.27
390.244	4549.6
390.465	4576.76
390.687	4608.4
390.908	4639.25
391.129	4672.67
391.35	4703.58
391.571	4734.4
391.792	4767.58
392.013	4797.93
392.234	4828.91
392.455	4863.38
392.677	4894.75
392.898	4925.62
393.119	4956.18
393.34	4987.95
393.561	5017.98
393.782	5052.04
394.003	5083.65
394.223	5113.22
394.444	5150.35
394.665	5185.71
394.886	5220.85
395.107	5250.91
395.328	5288.25
395.549	5324.35
395.77	5362.55
395.99	5394.38
396.211	5428.6
396.432	5462.95
396.653	5497.69
396.874	5529.42
397.094	5560.33
397.315	5588.71
397.536	5623.89
397.757	5656.27
397.977	5690.93
398.198	5720.65
398.419	5757.91
398.639	5794.58
398.86	5831.62
399.081	5866.4
399.301	5898.98
399.522	5936.45
399.742	5975.42
399.963	6012.36
400.184	6047.62
400.404	6080.4
400.625	6116.65
400.845	6149.49
401.066	6184.78
401.286	6218.82
401.507	6254.6
401.727	6294.13
401.948	6329.73
402.168	6363.04
402.388	6400.67
402.609	6434.67
402.829	6469.49
403.05	6504.42
403.27	6539.04
403.49	6574.49
403.711	6610.36
403.931	6643.89
404.151	6678.42
404.372	6711.67
404.592	6747.55
404.812	6781.8
405.032	6818.55
405.253	6855.36
405.473	6893.49
405.693	6931.8
405.913	6965.04
406.133	7003.07
406.353	7043.69
406.574	7077.78
406.794	7116.64
407.014	7151.42
407.234	7187.35
407.454	7221.09
407.674	7255.95
407.894	7290.45
408.114	7323.24
408.334	7361.95
408.554	7395.07
408.774	7429.56
408.994	7468.4
409.214	7504.16
409.434	7543.4
409.654	7577.93
409.874	7615.25
410.094	7656.96
410.314	7694.49
410.534	7737.29
410.754	7777.58
410.974	7815.93
411.193	7856.04
411.413	7890.93
411.633	7928.47
411.853	7970.45
412.073	8013.36
412.292	8058.62
412.512	8094.15
412.732	8128.55
412.952	8167.33
413.171	8204.96
413.391	8246.11
413.611	8286.75
413.831	8332.42
414.05	8374.6
414.27	8415.13
414.489	8455.05
414.709	8494.13
414.929	8537.98
415.148	8584.76
415.368	8626.8
415.587	8668.44
415.807	8717.62
416.026	8762.11
416.246	8801.6
416.465	8849.38
416.685	8893.45
416.904	8938.6
417.124	8979.24
417.343	9026.75
417.563	9071.31
417.782	9114.38
418.002	9160.13
418.221	9198.36
418.44	9238.82
418.66	9285.51
418.879	9327.2
419.098	9369.65
419.318	9411.53
419.537	9460.04
419.756	9501.89
419.976	9546.53
420.195	9589.85
420.414	9629.71
420.633	9672.55
420.853	9712.96
421.072	9752.64
421.291	9796.11
421.51	9835.2
421.729	9883.67
421.948	9928.95
422.168	9972.45
422.387	10016.22
422.606	10062.22
422.825	10110.22
423.044	10156.16
423.263	10201.98
423.482	10245.42
423.701	10288.71
423.92	10335.38
424.139	10372.24
424.358	10412.95
424.577	10456.67
424.796	10503.93
425.015	10548.71
425.234	10592.89
425.453	10639.31
425.672	10688.89
425.891	10739.16
426.11	10784.95
426.328	10830.95
426.547	10879.05
426.766	10927.16
426.985	10973.16
427.204	11021.82
427.422	11066.58
427.641	11115.84
427.86	11163.73
428.079	11209.16
428.297	11260.05
428.516	11308.11
428.735	11360
428.954	11411.05
429.172	11456.84
429.391	11504.58
429.61	11548.11
429.828	11600.45
430.047	11647.25
430.265	11693.71
430.484	11737.84
430.703	11781.15
430.921	11831.64
431.14	11873.78
431.358	11919.98
431.577	11968.76
431.795	12020.62
432.014	12072.31
432.232	12118.09
432.451	12164.71
432.669	12217.73
432.887	12268.85
433.106	12316.13
433.324	12357.15
433.543	12410.24
433.761	12462.65
433.979	12513.02
434.198	12550.85
434.416	12591.67
434.634	12641.45
434.853	12690.87
435.071	12733.02
435.289	12779.38
435.507	12824.95
435.726	12870.8
435.944	12912.87
436.162	12954.55
436.38	12997.16
436.598	13048.98
436.817	13101.4
437.035	13140.8
437.253	13188.16
437.471	13234.8
437.689	13281.05
437.907	13330.75
438.125	13377.27
438.343	13423.6
438.561	13471.38
438.78	13524.76
438.998	13577.4
439.216	13621.76
439.434	13675.25
439.652	13719.35
439.869	13762.42
440.087	13812.85
440.305	13863.8
440.523	13915.95
440.741	13968.04
440.959	14016.05
441.177	14064.24
441.395	14109.42
441.613	14156.76
441.831	14203.31
442.048	14249.73
442.266	14300.84
442.484	14349
442.702	14394.02
442.919	14443.2
443.137	14492.31
443.355	14541.91
443.573	14585.22
443.79	14639.56
444.008	14693.05
444.226	14741.85
444.443	14794.42
444.661	14847.8
444.879	14893.51
445.096	14943.51
445.314	14994.53
445.532	15041.62
445.749	15085.56
445.967	15132.42
446.184	15175.47
446.402	15221
446.619	15270.47
446.837	15319.53
447.054	15362.27
447.272	15408.65
447.489	15454.8
447.707	15498.44
447.924	15546.67
448.141	15597.75
448.359	15651.87
448.576	15697.8
448.794	15746.8
449.011	15796.05
449.228	15844.93
449.446	15895.93
449.663	15952.36
449.88	16003.53
450.098	16052.65
450.315	16099.96
450.532	16150.33
450.749	16197.2
450.967	16250.24
451.184	16297.25
451.401	16344.49
451.618	16387.96
451.835	16437.78
452.052	16486.11
452.27	16531.13
452.487	16581.56
452.704	16631.35
452.921	16680
453.138	16722.73
453.355	16769.91
453.572	16819.67
453.789	16864.73
454.006	16919.67
454.223	16964.29
454.44	17011.85
454.657	17060.36
454.874	17109.58
455.091	17155.11
455.308	17202.8
