Data from test1_MAYP1115451__43__10-14-52-283.txt Node

Date: Wed Jun 12 10:14:52 MDT 2024
User: Modes Lab
Spectrometer: MAYP111545
Trigger mode: 0
Integration Time (sec): 8.000000E-3
Scans to average: 5
Electric dark correction enabled: true
Nonlinearity correction enabled: false
Boxcar width: 5
XAxis mode: Wavelengths
Number of Pixels in Spectrum: 2068
>>>>>Begin Spectral Data<<<<<
165.214	163.37
165.449	164.32
165.683	173.87
165.918	183.22
166.152	190.35
166.387	195.19
166.621	126.85
166.856	165.36
167.09	184.03
167.325	207.36
167.559	224.72
167.794	238.43
168.028	245.81
168.263	246.3
168.497	245.81
168.732	246.05
168.966	247.85
169.2	248.92
169.435	250.41
169.669	251.32
169.903	253.32
170.138	254.36
170.372	255.41
170.606	256.74
170.841	258.01
171.075	259.67
171.309	261.03
171.544	261.81
171.778	263.58
172.012	265.98
172.246	268.01
172.48	270.14
172.715	271.59
172.949	274.68
173.183	276.34
173.417	278.18
173.651	279.65
173.885	280.83
174.119	282.39
174.354	283.56
174.588	283.74
174.822	283.98
175.056	284.1
175.29	284.56
175.524	283.61
175.758	282.52
175.992	283.05
176.226	282.25
176.46	281.88
176.694	282.16
176.928	283.58
177.162	285.14
177.396	285.54
177.63	286.07
177.864	287.47
178.097	288.88
178.331	290.7
178.565	291.52
178.799	292.59
179.033	293.92
179.267	294.41
179.5	294.21
179.734	293.79
179.968	295.25
180.202	296.5
180.436	296.54
180.669	297.47
180.903	298.27
181.137	298.98
181.371	299.67
181.604	300.72
181.838	301.85
182.072	304.25
182.305	305.45
182.539	306.28
182.772	306.23
183.006	307.7
183.24	308.54
183.473	312.58
183.707	314.3
183.94	316.01
184.174	317.39
184.408	319.05
184.641	318.16
184.875	319.43
185.108	320.65
185.342	322.5
185.575	324.32
185.808	326.28
186.042	325.08
186.275	326.19
186.509	327.48
186.742	328.81
186.976	329.58
187.209	331.68
187.442	332.81
187.676	333.58
187.909	334.3
188.142	334.94
188.376	335.12
188.609	336.48
188.842	337.9
189.076	340.18
189.309	340.41
189.542	342.16
189.775	344.25
190.009	347.32
190.242	349.52
190.475	351.14
190.708	352.76
190.941	354.59
191.174	357.28
191.408	359.7
191.641	360.96
191.874	363.65
192.107	365.58
192.34	368.01
192.573	368.7
192.806	370.79
193.039	372.45
193.272	374.96
193.505	377.61
193.738	378.74
193.971	379.96
194.204	382.52
194.437	384.3
194.67	385.9
194.903	386.85
195.136	389.1
195.369	390.85
195.602	393.27
195.835	395.14
196.068	396.43
196.301	397.08
196.533	398.41
196.766	399.25
196.999	402.05
197.232	404.07
197.465	405.67
197.698	406.88
197.93	409.27
198.163	411.32
198.396	412.99
198.629	415.16
198.861	418.1
199.094	421.27
199.327	422.47
199.559	423.19
199.792	425.5
200.025	427.19
200.257	430.88
200.49	432.76
200.723	434.79
200.955	437.25
201.188	440.79
201.42	444.12
201.653	444.99
201.886	448.76
202.118	451.61
202.351	453.14
202.583	456.96
202.816	458.23
203.048	460.59
203.281	462.52
203.513	465.14
203.745	467.3
203.978	467.79
204.21	471.05
204.443	473.05
204.675	474.45
204.907	477.14
205.14	478.45
205.372	480.45
205.605	483.43
205.837	486.67
206.069	487.72
206.302	489.23
206.534	492.08
206.766	493.5
206.998	496.5
207.231	499.72
207.463	502.19
207.695	504.99
207.927	506.76
208.159	507.58
208.392	509.92
208.624	512.88
208.856	514.88
209.088	517.78
209.32	520.59
209.552	521.08
209.784	523.58
210.017	525.16
210.249	527.3
210.481	530.54
210.713	532.87
210.945	534.01
211.177	535.45
211.409	537.32
211.641	538.38
211.873	539.79
212.105	541.99
212.337	543.98
212.569	546.19
212.801	548.72
213.033	550.25
213.264	554.08
213.496	556.23
213.728	558.48
213.96	560.88
214.192	562.28
214.424	564.96
214.656	567.63
214.887	570.1
215.119	572.58
215.351	573.48
215.583	574.28
215.815	574.78
216.046	576.25
216.278	578.05
216.51	581.07
216.741	583.48
216.973	584.08
217.205	585.28
217.436	585.38
217.668	587.47
217.9	588.81
218.131	590.99
218.363	592.18
218.595	594.45
218.826	595.85
219.058	595.47
219.289	596.96
219.521	598.54
219.752	600.19
219.984	601.94
220.215	602.27
220.447	604.07
220.678	605.43
220.91	606.08
221.141	606.72
221.373	607.99
221.604	608.41
221.836	610.58
222.067	613.27
222.298	614.21
222.53	614.94
222.761	616.48
222.993	617.61
223.224	619.67
223.455	622.12
223.686	623.32
223.918	624.38
224.149	626.59
224.38	626.72
224.612	626.5
224.843	627.14
225.074	629.9
225.305	630.85
225.536	631.43
225.768	630.94
225.999	631.1
226.23	633.23
226.461	633.39
226.692	633.08
226.923	633.28
227.155	634.52
227.386	635.85
227.617	635.28
227.848	634.01
228.079	634.48
228.31	634.56
228.541	634.81
228.772	633.68
229.003	633.43
229.234	633.83
229.465	633.21
229.696	633.16
229.927	631.7
230.158	630.34
230.389	630.03
230.62	630.58
230.85	631.43
231.081	631.21
231.312	631.32
231.543	631.63
231.774	631.27
232.005	632.07
232.236	631.41
232.466	632.74
232.697	633.52
232.928	634.07
233.159	632.52
233.389	633.52
233.62	632.96
233.851	631.52
234.082	631.1
234.312	631.92
234.543	630.5
234.774	630.23
235.004	629.54
235.235	628.72
235.466	629.63
235.696	630.1
235.927	628.54
236.157	629.65
236.388	630.05
236.618	629.67
236.849	628.78
237.08	630.34
237.31	631.18
237.541	631.5
237.771	632.07
238.002	630.83
238.232	631.01
238.463	630.36
238.693	629.63
238.923	630.12
239.154	630.48
239.384	630.94
239.615	631.43
239.845	630.34
240.075	630.41
240.306	629.96
240.536	630.41
240.766	628.76
240.997	628.96
241.227	628.28
241.457	627.41
241.687	626.78
241.918	626.47
242.148	625.52
242.378	624.32
242.608	622.41
242.839	622.1
243.069	620.39
243.299	620.88
243.529	619.61
243.759	619.43
243.989	619.68
244.22	619.94
244.45	617.94
244.68	617.32
244.91	618.16
245.14	618.79
245.37	618.41
245.6	619.45
245.83	619.25
246.06	618.74
246.29	618.1
246.52	617.27
246.75	616.5
246.98	617.88
247.21	616.94
247.44	616.36
247.67	615.25
247.9	614.74
248.13	614.08
248.359	613.03
248.589	613.27
248.819	613.47
249.049	612.79
249.279	611.99
249.509	610.08
249.738	609.08
249.968	607.72
250.198	606.25
250.428	605.3
250.657	603.88
250.887	604.19
251.117	604.43
251.347	603.03
251.576	602.05
251.806	601.12
252.036	602.07
252.265	601.96
252.495	601.52
252.725	602.5
252.954	602.88
253.184	601.74
253.413	600.94
253.643	599.1
253.873	597.41
254.102	597.56
254.332	597.19
254.561	595.7
254.791	595.63
255.02	595.12
255.25	595.03
255.479	593.18
255.708	593.7
255.938	592.68
256.167	592.19
256.397	591.94
256.626	591.59
256.856	591.36
257.085	590.19
257.314	589.39
257.544	589.1
257.773	587.3
258.002	587.72
258.232	585.59
258.461	585.16
258.69	585.3
258.919	585.03
259.149	583.79
259.378	582.05
259.607	582.28
259.836	581.52
260.065	580.63
260.295	580.28
260.524	579.28
260.753	579.96
260.982	577.83
261.211	576.74
261.44	576.34
261.669	575.99
261.899	575.48
262.128	574.07
262.357	572.3
262.586	571.54
262.815	570.25
263.044	569.54
263.273	570.98
263.502	571.7
263.731	571.25
263.96	570.65
264.189	569.45
264.418	569.58
264.646	569.38
264.875	569.38
265.104	567.74
265.333	566.92
265.562	564.83
265.791	562.12
266.02	560.41
266.249	557.19
266.477	556.36
266.706	554.76
266.935	553.14
267.164	551.7
267.393	550.72
267.621	550.23
267.85	549.99
268.079	549.67
268.307	548.92
268.536	548.39
268.765	549.92
268.993	549.72
269.222	549.92
269.451	549.85
269.679	549.07
269.908	549.23
270.137	550.48
270.365	550.16
270.594	550.39
270.822	550.68
271.051	551.43
271.279	550.92
271.508	550.52
271.736	551.92
271.965	552.48
272.193	553.32
272.422	553.52
272.65	552.7
272.879	551.39
273.107	552.45
273.336	551.36
273.564	550.78
273.792	550.65
274.021	549.43
274.249	547.88
274.477	545.87
274.706	544.38
274.934	543.07
275.162	540.85
275.391	541.12
275.619	540.14
275.847	539.05
276.075	537.1
276.304	536.12
276.532	535.1
276.76	532.98
276.988	533.59
277.216	532.92
277.445	530.81
277.673	530.45
277.901	530.25
278.129	528.43
278.357	528.01
278.585	527.41
278.813	527.14
279.041	526.3
279.269	525.98
279.497	525.38
279.725	525.16
279.954	525.61
280.182	524.87
280.41	523.61
280.637	523.18
280.865	523.45
281.093	523.98
281.321	522.79
281.549	522.28
281.777	522.41
282.005	521.52
282.233	522.1
282.461	521.61
282.689	521.63
282.916	521.76
283.144	521.21
283.372	518.41
283.6	517.7
283.828	517.05
284.055	517.34
284.283	516.41
284.511	515.36
284.739	513.74
284.966	513.27
285.194	513.01
285.422	511.38
285.649	510.23
285.877	510.98
286.105	509.92
286.332	509.32
286.56	508.39
286.788	507.72
287.015	507.92
287.243	506.63
287.47	506.43
287.698	505.05
287.925	504.83
288.153	505.16
288.381	503.67
288.608	502.74
288.836	502.72
289.063	502.81
289.29	503.28
289.518	501.83
289.745	502.65
289.973	500.61
290.2	501.38
290.428	499.78
290.655	498.96
290.882	499.36
291.11	498.98
291.337	497.9
291.564	497.43
291.792	495.67
292.019	494.7
292.246	492.47
292.473	491.87
292.701	490.52
292.928	491.08
293.155	489.52
293.382	487.99
293.61	487.54
293.837	487.18
294.064	486.27
294.291	485.34
294.518	485.59
294.745	485.85
294.972	486.43
295.2	486.98
295.427	487.07
295.654	488.01
295.881	489.16
296.108	488.1
296.335	488.16
296.562	487.88
296.789	487.9
297.016	486.83
297.243	486.48
297.47	486.03
297.697	484.39
297.924	483.19
298.151	482.78
298.378	481.21
298.604	481.83
298.831	480.79
299.058	479.56
299.285	478.88
299.512	478.9
299.739	478.5
299.966	477.3
300.192	477.27
300.419	476.67
300.646	475.34
300.873	475.52
301.099	475.5
301.326	475.61
301.553	475.41
301.78	478.38
302.006	478.39
302.233	476.23
302.46	476.45
302.686	475.47
302.913	475.7
303.14	475.88
303.366	475.83
303.593	474.32
303.819	472.98
304.046	472.68
304.272	468.56
304.499	467.85
304.725	467.88
304.952	467.19
305.179	467.19
305.405	465.94
305.631	465.01
305.858	464.78
306.084	464.38
306.311	465.96
306.537	465.56
306.764	465.52
306.99	465.34
307.216	466.34
307.443	465.76
307.669	465.34
307.895	465.27
308.122	465.27
308.348	463.81
308.574	463.79
308.801	461.88
309.027	462.43
309.253	462.59
309.479	461.47
309.706	460.61
309.932	459.48
310.158	459.41
310.384	459.23
310.61	458.76
310.837	459.18
311.063	459.19
311.289	458.61
311.515	458.38
311.741	457.41
311.967	458.79
312.193	458.3
312.419	459.08
312.645	459.38
312.871	458.85
313.097	459.63
313.323	459.63
313.549	460.59
313.775	461.9
314.001	461.5
314.227	461.88
314.453	462.7
314.679	463.96
314.905	464.78
315.131	464.68
315.357	465.07
315.583	465.07
315.809	465.47
316.034	465.16
316.26	464.27
316.486	465.19
316.712	466.05
316.938	464.63
317.163	464.87
317.389	464.81
317.615	465.05
317.841	466.48
318.066	466.98
318.292	466.36
318.518	467.28
318.743	467.21
318.969	468.19
319.195	469.34
319.42	469.78
319.646	469.21
319.872	470.56
320.097	471.14
320.323	471.58
320.548	472.14
320.774	474.45
320.999	474.41
321.225	476.9
321.45	477.21
321.676	478.88
321.901	480.05
322.127	482.3
322.352	483.83
322.578	486.76
322.803	489.1
323.029	490.78
323.254	491.43
323.479	493.59
323.705	494.72
323.93	496.03
324.155	496.79
324.381	498.88
324.606	500.32
324.831	503.05
325.057	504.18
325.282	505.61
325.507	507.81
325.732	510.05
325.958	512.41
326.183	515.43
326.408	517.67
326.633	521.99
326.858	523.96
327.084	527.03
327.309	527.47
327.534	530.78
327.759	532.67
327.984	536.16
328.209	540.3
328.434	543.03
328.659	545.7
328.884	549.18
329.109	549.76
329.334	553.72
329.559	556.67
329.784	561.65
330.009	565.1
330.234	569.96
330.459	572.7
330.684	575.59
330.909	579.3
331.134	582.85
331.359	586.58
331.584	591.36
331.809	596.18
332.034	600.81
332.259	604.87
332.483	607.68
332.708	611.28
332.933	614.92
333.158	618.92
333.383	624.58
333.607	630.63
333.832	635.63
334.057	641.25
334.282	645.63
334.506	651.41
334.731	657.01
334.956	664.3
335.18	669.47
335.405	676.43
335.63	683.47
335.854	688.1
336.079	691.68
336.303	697.67
336.528	703.27
336.753	708.79
336.977	713.65
337.202	719.39
337.426	724.58
337.651	731.59
337.875	737.32
338.1	744.14
338.324	750.74
338.549	758.79
338.773	766.19
338.997	773.25
339.222	780.81
339.446	787.94
339.671	794.92
339.895	802.18
340.119	809.34
340.344	816.87
340.568	823.72
340.792	831.94
341.017	840.34
341.241	848.68
341.465	856.21
341.689	865.47
341.914	874.16
342.138	882.87
342.362	890.79
342.586	899.88
342.811	907.96
343.035	916.5
343.259	925.32
343.483	933.92
343.707	942.56
343.931	953.63
344.155	963.01
344.38	973.01
344.604	982.16
344.828	991.52
345.052	999.56
345.276	1010.34
345.5	1020.27
345.724	1029.03
345.948	1039.48
346.172	1048.68
346.396	1056.87
346.62	1065.7
346.844	1076.01
347.068	1083.9
347.292	1094.79
347.515	1105.83
347.739	1117.92
347.963	1128.21
348.187	1139.12
348.411	1148.61
348.635	1159.76
348.859	1169.1
349.082	1178.43
349.306	1188.59
349.53	1202.56
349.754	1213.39
349.977	1222.76
350.201	1230.07
350.425	1240.54
350.649	1252.28
350.872	1263.54
351.096	1273.65
351.32	1285.65
351.543	1298.76
351.767	1310.23
351.99	1320.05
352.214	1331.96
352.438	1345.38
352.661	1357.41
352.885	1368.99
353.108	1379.94
353.332	1391.36
353.555	1403.59
353.779	1415.67
354.002	1426.5
354.226	1438.59
354.449	1451.65
354.673	1461.63
354.896	1474.38
355.12	1487.36
355.343	1499.99
355.566	1512.36
355.79	1525.85
356.013	1537.54
356.237	1550.27
356.46	1562.36
356.683	1574.59
356.907	1588.07
357.13	1601.65
357.353	1612.99
357.576	1627.12
357.8	1639.39
358.023	1651.1
358.246	1663.01
358.469	1675.56
358.693	1688.54
358.916	1701.56
359.139	1713.19
359.362	1724.56
359.585	1738.43
359.808	1752.23
360.031	1762.85
360.255	1777.72
360.478	1794.16
360.701	1807.99
360.924	1822.47
361.147	1836.07
361.37	1850.1
361.593	1865.38
361.816	1880.36
362.039	1893.39
362.262	1907.45
362.485	1920.76
362.708	1932.34
362.931	1943.99
363.154	1957.3
363.377	1970.9
363.599	1986.05
363.822	1998.21
364.045	2010.9
364.268	2023.68
364.491	2038.41
364.714	2052.05
364.936	2067.01
365.159	2081.27
365.382	2097.76
365.605	2111.43
365.828	2129.25
366.05	2144.9
366.273	2164.34
366.496	2183.58
366.718	2197.5
366.941	2213.34
367.164	2227.16
367.386	2245.56
367.609	2262.43
367.832	2276.3
368.054	2292.56
368.277	2304.81
368.5	2319.38
368.722	2332.56
368.945	2346.08
369.167	2363.3
369.39	2378.78
369.612	2398.14
369.835	2416.07
370.057	2433.48
370.28	2450.99
370.502	2469.98
370.725	2486.81
370.947	2501.88
371.169	2519.58
371.392	2534.5
371.614	2552.25
371.837	2570.03
372.059	2588.14
372.281	2603.12
372.504	2618.23
372.726	2633.45
372.948	2649.78
373.171	2668.21
373.393	2687.12
373.615	2707.5
373.837	2729.05
374.06	2747.58
374.282	2764.85
374.504	2780.27
374.726	2798.52
374.948	2819.07
375.17	2842.25
375.393	2860.92
375.615	2880.39
375.837	2904.07
376.059	2921.18
376.281	2937.54
376.503	2959.41
376.725	2981.63
376.947	3001.12
377.169	3021.65
377.391	3043.12
377.613	3062.83
377.835	3085.9
378.057	3105.1
378.279	3123.27
378.501	3144.99
378.723	3167.79
378.945	3187.28
379.167	3207.99
379.389	3233.43
379.611	3254.63
379.833	3275.79
380.054	3296.72
380.276	3319.99
380.498	3346.65
380.72	3369.5
380.942	3394.83
381.163	3418.54
381.385	3442.61
381.607	3467.68
381.829	3491.85
382.05	3517.18
382.272	3544.21
382.494	3569.47
382.716	3594.01
382.937	3620.79
383.159	3646.1
383.381	3671.63
383.602	3697.56
383.824	3728.16
384.045	3753.63
384.267	3778.74
384.488	3806.07
384.71	3830.56
384.932	3860.63
385.153	3886.88
385.375	3911.38
385.596	3941.5
385.818	3969.74
386.039	4000.74
386.261	4025.28
386.482	4053.27
386.703	4082.99
386.925	4113.7
387.146	4144.78
387.368	4168.85
387.589	4199.19
387.81	4229.03
388.032	4258.38
388.253	4284.98
388.474	4313.68
388.696	4344.23
388.917	4374.01
389.138	4404.48
389.359	4432.76
389.581	4461.68
389.802	4495.79
390.023	4522.72
390.244	4554.1
390.465	4580.38
390.687	4612.07
390.908	4640.34
391.129	4669.03
391.35	4699.88
391.571	4731.48
391.792	4764.5
392.013	4795.45
392.234	4825.18
392.455	4857.88
392.677	4887.23
392.898	4921.05
393.119	4954.92
393.34	4989.58
393.561	5023.61
393.782	5059.65
394.003	5090.87
394.223	5123.05
394.444	5153.19
394.665	5187.3
394.886	5224.68
395.107	5258.34
395.328	5290.43
395.549	5320.83
395.77	5354.03
395.99	5387.19
396.211	5421.98
396.432	5456.78
396.653	5491.07
396.874	5528.36
397.094	5564.88
397.315	5594.99
397.536	5627.96
397.757	5664.63
397.977	5700.08
398.198	5735.54
398.419	5772.01
398.639	5805.41
398.86	5839.85
399.081	5878.72
399.301	5918.78
399.522	5947.72
399.742	5983.99
399.963	6022.16
400.184	6057.76
400.404	6093.21
400.625	6125.65
400.845	6160.41
401.066	6192.14
401.286	6225.92
401.507	6257.65
401.727	6285.58
401.948	6324.61
402.168	6360.28
402.388	6391.9
402.609	6426.07
402.829	6467.38
403.05	6504.19
403.27	6542.68
403.49	6578.07
403.711	6619.48
403.931	6652.83
404.151	6690.63
404.372	6722.83
404.592	6760.27
404.812	6800.05
405.032	6835.99
405.253	6863.03
405.473	6899.92
405.693	6930.59
405.913	6966.41
406.133	7000.32
406.353	7039.1
406.574	7077.01
406.794	7115.08
407.014	7146.92
407.234	7181.81
407.454	7216.45
407.674	7255.48
407.894	7289.7
408.114	7329.98
408.334	7370.25
408.554	7402.59
408.774	7436.01
408.994	7471.74
409.214	7513.74
409.434	7557.08
409.654	7598.92
409.874	7641.68
410.094	7679.39
410.314	7719.39
410.534	7755.3
410.754	7793.88
410.974	7833.43
411.193	7872.01
411.413	7911.5
411.633	7942.47
411.853	7977.48
412.073	8013.28
412.292	8044.85
412.512	8083.56
412.732	8123.72
412.952	8160.1
413.171	8197.56
413.391	8240.12
413.611	8284.41
413.831	8324.61
414.05	8372.12
414.27	8416.23
414.489	8455.12
414.709	8507.03
414.929	8553.3
415.148	8591.52
415.368	8636.52
415.587	8676.39
415.807	8718.61
416.026	8759.54
416.246	8801.32
416.465	8844.38
416.685	8885.47
416.904	8935.67
417.124	8975.81
417.343	9017.98
417.563	9065.96
417.782	9112.34
418.002	9163.34
418.221	9208.19
418.44	9248.16
418.66	9294.76
418.879	9339.61
419.098	9381.68
419.318	9418.79
419.537	9461.58
419.756	9506.21
419.976	9547.63
420.195	9590.85
420.414	9634.48
420.633	9678.74
420.853	9722.76
421.072	9769.01
421.291	9818.85
421.51	9859.78
421.729	9907.85
421.948	9949.39
422.168	9986.08
422.387	10028.28
422.606	10071.63
422.825	10118.59
423.044	10157.47
423.263	10206.32
423.482	10251.25
423.701	10287.01
423.92	10336.21
424.139	10377.96
424.358	10426.38
424.577	10475.1
424.796	10522.72
425.015	10567.7
425.234	10608.38
425.453	10663.81
425.672	10706.39
425.891	10746.27
426.11	10788.88
426.328	10836.85
426.547	10882.68
426.766	10925.58
426.985	10975.16
427.204	11020.78
427.422	11068.3
427.641	11113.05
427.86	11155.18
428.079	11201.83
428.297	11254.05
428.516	11309.1
428.735	11354.12
428.954	11405.76
429.172	11457.61
429.391	11504.81
429.61	11556.54
429.828	11606.1
430.047	11648.63
430.265	11691.54
430.484	11736.48
430.703	11781.85
430.921	11827.07
431.14	11871.45
431.358	11911.99
431.577	11956.96
431.795	12003.12
432.014	12045.28
432.232	12092.19
432.451	12143.39
432.669	12197.99
432.887	12249.78
433.106	12296.99
433.324	12341.3
433.543	12393.78
433.761	12445.07
433.979	12492.23
434.198	12540.39
434.416	12594.56
434.634	12640.38
434.853	12691.36
435.071	12736.08
435.289	12786.41
435.507	12832.07
435.726	12877.98
435.944	12922.45
436.162	12969.14
436.38	13014.39
436.598	13057.58
436.817	13098.25
437.035	13147.19
437.253	13198.28
437.471	13244.5
437.689	13293.36
437.907	13340.72
438.125	13390.21
438.343	13434.88
438.561	13486.34
438.78	13533.45
438.998	13585.43
439.216	13634.78
439.434	13675.03
439.652	13720.52
439.869	13767.08
440.087	13808.7
440.305	13855.43
440.523	13900.87
440.741	13956.3
440.959	13999.45
441.177	14055.12
441.395	14103.01
441.613	14156.28
441.831	14208.01
442.048	14257.99
442.266	14301.67
442.484	14350.56
442.702	14402.14
442.919	14454.99
443.137	14502.3
443.355	14550.1
443.573	14591.21
443.79	14639.39
444.008	14683.61
444.226	14736.72
444.443	14779.83
444.661	14835.16
444.879	14886.59
445.096	14935.68
445.314	14979.99
445.532	15031.16
445.749	15086.16
445.967	15139.41
446.184	15190.23
446.402	15243.61
446.619	15285.48
446.837	15332.43
447.054	15376.25
447.272	15422.21
447.489	15465.43
447.707	15515.87
447.924	15558.63
448.141	15607.48
448.359	15654.52
448.576	15705.76
448.794	15752.72
449.011	15806.5
449.228	15859.5
449.446	15909.01
449.663	15959.01
449.88	16008.72
450.098	16055.05
450.315	16105.92
450.532	16146.56
450.749	16196.87
450.967	16245.39
451.184	16291.14
451.401	16338.52
451.618	16383.19
451.835	16432.98
452.052	16479.3
452.27	16527.58
452.487	16579.76
452.704	16630.08
452.921	16679.76
453.138	16724.27
453.355	16766.56
453.572	16822.76
453.789	16868.03
454.006	16920.98
454.223	16969.32
454.44	17026.18
