Data from test1_MAYP1115451__81__10-15-05-004.txt Node

Date: Wed Jun 12 10:15:05 MDT 2024
User: Modes Lab
Spectrometer: MAYP111545
Trigger mode: 0
Integration Time (sec): 8.000000E-3
Scans to average: 5
Electric dark correction enabled: true
Nonlinearity correction enabled: false
Boxcar width: 5
XAxis mode: Wavelengths
Number of Pixels in Spectrum: 2068
>>>>>Begin Spectral Data<<<<<
165.214	163.57
165.449	163.93
165.683	172.68
165.918	181.49
166.152	186.83
166.387	192.82
166.621	123.86
166.856	163.13
167.09	182.12
167.325	205.5
167.559	221.66
167.794	236.28
168.028	244.5
168.263	246.02
168.497	246.64
168.732	248.28
168.966	248.44
169.2	250.5
169.435	251.62
169.669	252.57
169.903	254.3
170.138	255.19
170.372	256.01
170.606	257.12
170.841	258.92
171.075	259.19
171.309	260.77
171.544	262.21
171.778	264.37
172.012	266.02
172.246	267.97
172.48	270.46
172.715	273.37
172.949	275.5
173.183	277.21
173.417	277.92
173.651	279.41
173.885	281.17
174.119	282.37
174.354	283.28
174.588	282.99
174.822	283.02
175.056	282.15
175.29	281.32
175.524	281.81
175.758	281.15
175.992	282.22
176.226	283.28
176.46	282.86
176.694	283.19
176.928	283.06
177.162	285.15
177.396	286.73
177.63	287.84
177.864	289.3
178.097	290.15
178.331	291.13
178.565	291.61
178.799	292.35
179.033	293.37
179.267	294.46
179.5	295.28
179.734	295.28
179.968	296.08
180.202	297.73
180.436	298.79
180.669	299.37
180.903	300.44
181.137	301.95
181.371	302.95
181.604	303.26
181.838	304.26
182.072	306.13
182.305	307.08
182.539	308.52
182.772	308.13
183.006	309.15
183.24	309.77
183.473	313.26
183.707	313.66
183.94	314.37
184.174	316.55
184.408	317.48
184.641	317.79
184.875	319.41
185.108	320.21
185.342	321.62
185.575	323.52
185.808	324.7
186.042	324.59
186.275	326.06
186.509	327.12
186.742	328.82
186.976	329.99
187.209	331.79
187.442	333.28
187.676	333.88
187.909	335.59
188.142	335.24
188.376	337.06
188.609	337.44
188.842	338.88
189.076	342.04
189.309	342.42
189.542	344.81
189.775	346.61
190.009	347.79
190.242	349.84
190.475	352.12
190.708	354.61
190.941	356.92
191.174	358.72
191.408	360.04
191.641	360.44
191.874	363.06
192.107	364.81
192.34	366.55
192.573	369.08
192.806	371.82
193.039	373.37
193.272	374.9
193.505	375.04
193.738	376.61
193.971	378.08
194.204	380.01
194.437	381.79
194.67	382.53
194.903	384.06
195.136	384.84
195.369	385.53
195.602	387.61
195.835	390.68
196.068	394.02
196.301	396.53
196.533	399.48
196.766	401.24
196.999	403.17
197.232	406.33
197.465	409.59
197.698	412.08
197.93	414.73
198.163	415.81
198.396	418.33
198.629	419.5
198.861	422.28
199.094	423.88
199.327	426.9
199.559	429.1
199.792	431.02
200.025	431.84
200.257	433.46
200.49	435.99
200.723	438.95
200.955	439.19
201.188	442.48
201.42	443.72
201.653	446.24
201.886	449.02
202.118	451.75
202.351	453.52
202.583	456.41
202.816	459.92
203.048	461.95
203.281	462.97
203.513	466.9
203.745	469.3
203.978	471.21
204.21	473.01
204.443	474.37
204.675	475.19
204.907	478.33
205.14	480.42
205.372	481.84
205.605	483.92
205.837	486.55
206.069	487.41
206.302	489.57
206.534	491.82
206.766	495.53
206.998	496.79
207.231	499.39
207.463	500.59
207.695	502.82
207.927	506.08
208.159	507.72
208.392	511.42
208.624	514.9
208.856	515.7
209.088	517.37
209.32	518.46
209.552	522.3
209.784	525.37
210.017	528.32
210.249	529.9
210.481	532.06
210.713	533.79
210.945	534.84
211.177	535.35
211.409	537.48
211.641	540.72
211.873	543.24
212.105	544.13
212.337	546.21
212.569	547.28
212.801	549.77
213.033	551.24
213.264	553.53
213.496	556.08
213.728	559.1
213.96	561.44
214.192	563.26
214.424	564.24
214.656	566.46
214.887	568.01
215.119	571.06
215.351	572.81
215.583	573.72
215.815	575.95
216.046	577.7
216.278	579.22
216.51	582.02
216.741	584.15
216.973	586.9
217.205	589.95
217.436	591.04
217.668	594.13
217.9	595.55
218.131	597.88
218.363	599.02
218.595	600.33
218.826	601.01
219.058	601.12
219.289	601.68
219.521	602.3
219.752	602.32
219.984	603.86
220.215	602.86
220.447	604.59
220.678	604.9
220.91	604.68
221.141	605.99
221.373	606.99
221.604	609.02
221.836	610.99
222.067	613.02
222.298	613.7
222.53	614.12
222.761	615.26
222.993	615.93
223.224	619.35
223.455	622.21
223.686	622.42
223.918	624.41
224.149	624.84
224.38	624.5
224.612	624.12
224.843	623.99
225.074	625.7
225.305	626.33
225.536	626.46
225.768	625.84
225.999	626.32
226.23	626.95
226.461	626.55
226.692	627.12
226.923	628.55
227.155	630.37
227.386	632.68
227.617	633.44
227.848	632.95
228.079	633.97
228.31	633.68
228.541	634.37
228.772	635.57
229.003	636.24
229.234	636.66
229.465	636.55
229.696	637.02
229.927	636.28
230.158	635.12
230.389	635.95
230.62	635.33
230.85	635.66
231.081	634.12
231.312	633.79
231.543	633.53
231.774	634.1
232.005	634.93
232.236	633.77
232.466	634.17
232.697	634.28
232.928	635.21
233.159	636.35
233.389	636.42
233.62	638.13
233.851	637.48
234.082	638.81
234.312	639.82
234.543	638.42
234.774	638.39
235.004	638.75
235.235	639.59
235.466	638.84
235.696	637.37
235.927	637.04
236.157	636.42
236.388	637.13
236.618	635.64
236.849	634.22
237.08	634.92
237.31	636.28
237.541	634.44
237.771	632.61
238.002	632.53
238.232	633.35
238.463	633.62
238.693	633.1
238.923	632.26
239.154	633.28
239.384	632.7
239.615	631.53
239.845	629.33
240.075	629.62
240.306	630.1
240.536	629.73
240.766	629.17
240.997	628.48
241.227	627.22
241.457	627.04
241.687	625.93
241.918	626.1
242.148	625.17
242.378	625.33
242.608	624.57
242.839	625.01
243.069	624.52
243.299	623.97
243.529	624.19
243.759	624.95
243.989	624.28
244.22	622.75
244.45	622.08
244.68	622.19
244.91	621.93
245.14	621.92
245.37	621.35
245.6	620.99
245.83	620.41
246.06	618.81
246.29	618.19
246.52	617.93
246.75	618.42
246.98	617.39
247.21	616.61
247.44	615.48
247.67	614.06
247.9	613.37
248.13	611.79
248.359	611.12
248.589	611.19
248.819	611.81
249.049	609.99
249.279	610.19
249.509	609.59
249.738	609.75
249.968	608.62
250.198	608.41
250.428	607.79
250.657	608.66
250.887	607.72
251.117	607.52
251.347	605.15
251.576	605.44
251.806	603.62
252.036	603.12
252.265	602.28
252.495	601.57
252.725	601.21
252.954	599.92
253.184	598.1
253.413	598.08
253.643	596.48
253.873	595.88
254.102	596.61
254.332	596.72
254.561	596.81
254.791	596.48
255.02	597.59
255.25	597.86
255.479	597.86
255.708	597.33
255.938	595.52
256.167	594.22
256.397	594.53
256.626	593.1
256.856	592.66
257.085	591.39
257.314	590.77
257.544	588.81
257.773	587.3
258.002	586.7
258.232	585.88
258.461	585.86
258.69	585.5
258.919	584.97
259.149	583.99
259.378	582.64
259.607	582.59
259.836	581.97
260.065	581.33
260.295	581.3
260.524	580.97
260.753	580.97
260.982	580.81
261.211	580.81
261.44	579.73
261.669	579.15
261.899	578.57
262.128	578.08
262.357	576.99
262.586	576.84
262.815	575.92
263.044	574.12
263.273	576.02
263.502	575.77
263.731	574.92
263.96	574.5
264.189	573.19
264.418	572.46
264.646	571.02
264.875	569.99
265.104	568.7
265.333	566.95
265.562	567.24
265.791	564.19
266.02	562.77
266.249	561.75
266.477	560.82
266.706	559.06
266.935	557.82
267.164	557.22
267.393	556.59
267.621	556.81
267.85	555.52
268.079	554.88
268.307	553.22
268.536	552.21
268.765	552.53
268.993	552.44
269.222	553.7
269.451	553.21
269.679	552.66
269.908	553.19
270.137	552.97
270.365	553.81
270.594	553.15
270.822	553.46
271.051	553.86
271.279	554.28
271.508	553.7
271.736	554.15
271.965	555.73
272.193	556.04
272.422	555.66
272.65	555.77
272.879	556.15
273.107	555.17
273.336	555.22
273.564	554.01
273.792	552.08
274.021	550.72
274.249	548.21
274.477	546.04
274.706	544.79
274.934	543.17
275.162	540.32
275.391	538.48
275.619	538.33
275.847	536.82
276.075	536.3
276.304	534.55
276.532	533.13
276.76	532.17
276.988	530.75
277.216	529.62
277.445	530.28
277.673	530.9
277.901	530.93
278.129	529.7
278.357	529.62
278.585	528.99
278.813	529.55
279.041	529.22
279.269	528.84
279.497	528.19
279.725	527.61
279.954	525.59
280.182	524.17
280.41	523.9
280.637	522.3
280.865	520.81
281.093	520.53
281.321	519.73
281.549	519.55
281.777	520.48
282.005	519.79
282.233	519.61
282.461	519.21
282.689	517.77
282.916	515.9
283.144	516.93
283.372	516.79
283.6	515.66
283.828	515.42
284.055	515.21
284.283	514.32
284.511	514.39
284.739	514.17
284.966	513.19
285.194	513.57
285.422	514.01
285.649	514.39
285.877	512.79
286.105	512.77
286.332	510.68
286.56	511.99
286.788	511.01
287.015	510.99
287.243	509.44
287.47	509.77
287.698	509.44
287.925	509.02
288.153	507.42
288.381	507.52
288.608	506.37
288.836	507.08
289.063	504.73
289.29	504.26
289.518	502.55
289.745	503.64
289.973	501.48
290.2	501.41
290.428	500.61
290.655	499.19
290.882	498.17
291.11	498.93
291.337	497.97
291.564	497.93
291.792	497.1
292.019	497.86
292.246	495.79
292.473	497.04
292.701	495.93
292.928	495.1
293.155	494.24
293.382	494.95
293.61	492.84
293.837	493.48
294.064	491.92
294.291	490.84
294.518	490.75
294.745	490.68
294.972	489.72
295.2	488.77
295.427	488.53
295.654	489.64
295.881	487.33
296.108	488.17
296.335	486.86
296.562	487.32
296.789	487.44
297.016	486.5
297.243	486.32
297.47	485.59
297.697	485.35
297.924	485.15
298.151	483.35
298.378	484.37
298.604	481.93
298.831	481.97
299.058	481.08
299.285	480.62
299.512	479.95
299.739	478.95
299.966	478.53
300.192	478.42
300.419	478.46
300.646	478.19
300.873	476.99
301.099	478.04
301.326	476.39
301.553	476.32
301.78	477.19
302.006	475.75
302.233	475.01
302.46	475.24
302.686	474.33
302.913	471.95
303.14	472.17
303.366	472.73
303.593	471.62
303.819	471.59
304.046	469.59
304.272	468.35
304.499	469.62
304.725	470.08
304.952	468.99
305.179	469.06
305.405	469.84
305.631	469.24
305.858	468.73
306.084	467.79
306.311	467.84
306.537	468.57
306.764	467.32
306.99	466.5
307.216	465.46
307.443	466.28
307.669	465.79
307.895	465.59
308.122	465.55
308.348	465.02
308.574	464.79
308.801	463.81
309.027	463.95
309.253	463.93
309.479	462.88
309.706	462.52
309.932	461.39
310.158	461.55
310.384	462.39
310.61	463.08
310.837	462.79
311.063	464.17
311.289	464.41
311.515	463.17
311.741	463.35
311.967	464.53
312.193	465.37
312.419	464.5
312.645	464.32
312.871	462.17
313.097	460.81
313.323	461.02
313.549	460.08
313.775	459.95
314.001	460.17
314.227	459.81
314.453	459.41
314.679	459.1
314.905	459.3
315.131	458.44
315.357	460.28
315.583	460.02
315.809	460.15
316.034	461.22
316.26	461.73
316.486	462.46
316.712	462.99
316.938	462.72
317.163	463.12
317.389	464.68
317.615	465.12
317.841	465.13
318.066	466.7
318.292	468.3
318.518	468.53
318.743	469.24
318.969	469.77
319.195	471.55
319.42	471.99
319.646	473.39
319.872	474.21
320.097	476.32
320.323	476.24
320.548	476.33
320.774	476.3
320.999	477.26
321.225	477.53
321.45	479.72
321.676	479.9
321.901	482.21
322.127	482.62
322.352	484.41
322.578	485.95
322.803	487.7
323.029	489.62
323.254	490.9
323.479	492.22
323.705	494.75
323.93	494.99
324.155	497.61
324.381	499.82
324.606	502.13
324.831	502.37
325.057	504.48
325.282	506.99
325.507	509.13
325.732	511.61
325.958	514.62
326.183	516.61
326.408	520.13
326.633	522.35
326.858	524.55
327.084	526.48
327.309	529.55
327.534	531.37
327.759	534.62
327.984	537.33
328.209	539.3
328.434	541.86
328.659	545.1
328.884	548.61
329.109	551.79
329.334	555.06
329.559	558.08
329.784	562.59
330.009	566.52
330.234	569.32
330.459	573.32
330.684	577.39
330.909	582.86
331.134	587.37
331.359	589.59
331.584	594.15
331.809	597.84
332.034	603.73
332.259	606.73
332.483	611.79
332.708	617.28
332.933	622.44
333.158	627.46
333.383	629.77
333.607	634.62
333.832	641.08
334.057	644.81
334.282	649.12
334.506	653.57
334.731	659.55
334.956	663.99
335.18	669.59
335.405	674.28
335.63	680.22
335.854	687.17
336.079	693.1
336.303	698.12
336.528	703.28
336.753	709.1
336.977	714.19
337.202	720.57
337.426	726.88
337.651	732.46
337.875	738.26
338.1	745.99
338.324	751.82
338.549	758.06
338.773	765.5
338.997	773.41
339.222	781.41
339.446	788.93
339.671	796.3
339.895	803.86
340.119	811.15
340.344	820.64
340.568	828.39
340.792	835.35
341.017	843.55
341.241	852.55
341.465	859.53
341.689	866.99
341.914	876.68
342.138	884.59
342.362	892.1
342.586	899.26
342.811	906.19
343.035	913.41
343.259	922.59
343.483	930.33
343.707	939.75
343.931	950.88
344.155	961.06
344.38	969.12
344.604	980.12
344.828	990.21
345.052	1000.33
345.276	1009.95
345.5	1019.19
345.724	1030.77
345.948	1040.48
346.172	1049.66
346.396	1059.28
346.62	1071.19
346.844	1082.02
347.068	1090.32
347.292	1100.66
347.515	1111.86
347.739	1124.22
347.963	1134.04
348.187	1142.93
348.411	1152.52
348.635	1162.3
348.859	1172.08
349.082	1179.46
349.306	1190.06
349.53	1201.92
349.754	1211.66
349.977	1223.75
350.201	1230.81
350.425	1242.79
350.649	1252.52
350.872	1265.95
351.096	1276.82
351.32	1289.55
351.543	1301.53
351.767	1313.93
351.99	1322.24
352.214	1335.35
352.438	1344.86
352.661	1357.82
352.885	1368.84
353.108	1383.01
353.332	1394.22
353.555	1405.84
353.779	1415.33
354.002	1428.02
354.226	1437.79
354.449	1452.19
354.673	1464.84
354.896	1476.75
355.12	1489.39
355.343	1501.81
355.566	1513.37
355.79	1525.26
356.013	1537.97
356.237	1550.68
356.46	1562.68
356.683	1576.17
356.907	1588.02
357.13	1599.72
357.353	1612.9
357.576	1624.52
357.8	1637.66
358.023	1650.42
358.246	1663.37
358.469	1675.82
358.693	1688.9
358.916	1701.57
359.139	1713.97
359.362	1726.62
359.585	1737.79
359.808	1752.28
360.031	1767.17
360.255	1779.97
360.478	1792.72
360.701	1805.37
360.924	1819.28
361.147	1834.61
361.37	1848.35
361.593	1862.77
361.816	1877.61
362.039	1894.39
362.262	1906.24
362.485	1918.22
362.708	1930.24
362.931	1945.3
363.154	1958.24
363.377	1972.82
363.599	1986.02
363.822	1997.97
364.045	2009.1
364.268	2023.13
364.491	2036.21
364.714	2050.88
364.936	2066.37
365.159	2080.72
365.382	2094.75
365.605	2110.5
365.828	2125.59
366.05	2140.48
366.273	2158.66
366.496	2176.62
366.718	2191.66
366.941	2207.46
367.164	2222.17
367.386	2238.08
367.609	2255.92
367.832	2271.72
368.054	2287.32
368.277	2302.24
368.5	2317.39
368.722	2329.59
368.945	2345.75
369.167	2361.81
369.39	2377.48
369.612	2396.13
369.835	2413.84
370.057	2432.59
370.28	2449.28
370.502	2468.12
370.725	2484.84
370.947	2501.19
371.169	2519.57
371.392	2536.82
371.614	2555.59
371.837	2572.88
372.059	2589.21
372.281	2606.99
372.504	2623.5
372.726	2641.26
372.948	2658.79
373.171	2676.17
373.393	2693.62
373.615	2712.37
373.837	2728.7
374.06	2748.1
374.282	2764.84
374.504	2782.39
374.726	2800.97
374.948	2817.28
375.17	2835.97
375.393	2852.84
375.615	2873.81
375.837	2892.26
376.059	2912.95
376.281	2936.15
376.503	2952.39
376.725	2973.7
376.947	2995.41
377.169	3014.66
377.391	3035.33
377.613	3060.12
377.835	3084.75
378.057	3101.5
378.279	3127.39
378.501	3150.86
378.723	3170.17
378.945	3192.44
379.167	3214.82
379.389	3236.02
379.611	3257.77
379.833	3283.55
380.054	3301.64
380.276	3324.59
380.498	3353.04
380.72	3376.3
380.942	3398.52
381.163	3422.02
381.385	3446.02
381.607	3471.48
381.829	3495.39
382.05	3520.57
382.272	3543.53
382.494	3571.39
382.716	3595.08
382.937	3619.95
383.159	3643.82
383.381	3670.99
383.602	3698.37
383.824	3725.62
384.045	3748.75
384.267	3780.19
384.488	3807.88
384.71	3834.28
384.932	3857.32
385.153	3882.93
385.375	3907.72
385.596	3936.08
385.818	3961.62
386.039	3990.04
386.261	4017.33
386.482	4050.08
386.703	4072.28
386.925	4099.92
387.146	4129.52
387.368	4162.24
387.589	4195.21
387.81	4222.79
388.032	4251.52
388.253	4284.35
388.474	4314.7
388.696	4346.35
388.917	4372.22
389.138	4402.13
389.359	4432.44
389.581	4460.01
389.802	4487.52
390.023	4514.73
390.244	4546.84
390.465	4577.73
390.687	4602.13
390.908	4633.79
391.129	4663.7
391.35	4697.1
391.571	4729.41
391.792	4760.81
392.013	4794.9
392.234	4827.12
392.455	4861.7
392.677	4896.3
392.898	4928.33
393.119	4963.17
393.34	4991.7
393.561	5022.1
393.782	5052.92
394.003	5084.21
394.223	5116.39
394.444	5149.57
394.665	5181.35
394.886	5212.35
395.107	5244.81
395.328	5277.3
395.549	5310.35
395.77	5342.24
395.99	5377.01
396.211	5414.08
396.432	5451.66
396.653	5485.39
396.874	5518.26
397.094	5553.52
397.315	5589.17
397.536	5619.53
397.757	5656.72
397.977	5693.3
398.198	5732.02
398.419	5767.52
398.639	5800.7
398.86	5835.95
399.081	5871.52
399.301	5906.95
399.522	5942.42
399.742	5975.66
399.963	6014.02
400.184	6046.52
400.404	6080.72
400.625	6113.42
400.845	6148.28
401.066	6182.79
401.286	6216.21
401.507	6254.52
401.727	6290.84
401.948	6325.61
402.168	6359.1
402.388	6396.66
402.609	6434.55
402.829	6469.3
403.05	6504.42
403.27	6540.79
403.49	6577.01
403.711	6612.02
403.931	6645.84
404.151	6679.37
404.372	6712.79
404.592	6748.42
404.812	6777.53
405.032	6809.79
405.253	6843.53
405.473	6879.95
405.693	6915.32
405.913	6946.92
406.133	6982.33
406.353	7016.86
406.574	7052.84
406.794	7089.93
407.014	7133.06
407.234	7169.72
407.454	7205.81
407.674	7241.44
407.894	7277.19
408.114	7314.48
408.334	7359.3
408.554	7397.82
408.774	7436.79
408.994	7477.39
409.214	7517.5
409.434	7548.73
409.654	7592.06
409.874	7632.81
410.094	7673.81
410.314	7713.92
410.534	7750.32
410.754	7786.5
410.974	7823.15
411.193	7862.9
411.413	7899.73
411.633	7938.82
411.853	7982.39
412.073	8021.33
412.292	8057.48
412.512	8095.3
412.732	8132.13
412.952	8175.82
413.171	8214.81
413.391	8256.28
413.611	8297.7
413.831	8340.66
414.05	8383.77
414.27	8423.79
414.489	8465.48
414.709	8512.5
414.929	8556.9
415.148	8603.24
415.368	8644.22
415.587	8685.73
415.807	8732.93
416.026	8772.61
416.246	8814.33
416.465	8854.48
416.685	8897.15
416.904	8946.19
417.124	8984.68
417.343	9028.92
417.563	9076.61
417.782	9121.81
418.002	9169.62
418.221	9209.41
418.44	9250.97
418.66	9294.12
418.879	9341.46
419.098	9385.72
419.318	9421.62
419.537	9467.44
419.756	9513.15
419.976	9551.68
420.195	9595.13
420.414	9632.68
420.633	9673.33
420.853	9721.04
421.072	9766.32
421.291	9806.37
421.51	9852.08
421.729	9899.52
421.948	9947.88
422.168	9990.88
422.387	10033.57
422.606	10075.13
422.825	10122.33
423.044	10172.79
423.263	10217.44
423.482	10261.22
423.701	10309.44
423.92	10347.32
424.139	10385.7
424.358	10430.46
424.577	10467.7
424.796	10514.81
425.015	10564.41
425.234	10607.66
425.453	10654.55
425.672	10698.86
425.891	10743.62
426.11	10782.1
426.328	10833.06
426.547	10881.13
426.766	10924.12
426.985	10975.97
427.204	11022.44
427.422	11065.32
427.641	11116.7
427.86	11156.32
428.079	11205.73
428.297	11253.84
428.516	11309.79
428.735	11356.35
428.954	11406.53
429.172	11454.41
429.391	11502.92
429.61	11559.52
429.828	11609.64
430.047	11657.52
430.265	11709.79
430.484	11754.46
430.703	11800.95
430.921	11841.88
431.14	11887.42
431.358	11933.37
431.577	11979.86
431.795	12027.26
432.014	12063.26
432.232	12109.57
432.451	12156.08
432.669	12203.7
432.887	12250.01
433.106	12299.28
433.324	12343.9
433.543	12392.3
433.761	12436.21
433.979	12481.99
434.198	12529.62
434.416	12583.37
434.634	12628.21
434.853	12677.66
435.071	12725.35
435.289	12769.3
435.507	12815.21
435.726	12868.41
435.944	12917.26
436.162	12965.28
436.38	13013.64
436.598	13058.53
436.817	13100.62
437.035	13153.53
437.253	13197.28
437.471	13243.52
437.689	13298.22
437.907	13346.39
438.125	13392.61
438.343	13440.73
438.561	13489.33
438.78	13536.95
438.998	13590.84
439.216	13638.13
439.434	13676.79
439.652	13724.53
439.869	13770.77
440.087	13813.88
440.305	13858.99
440.523	13904.55
440.741	13951.68
440.959	14002.48
441.177	14053.64
441.395	14096.84
441.613	14147.19
441.831	14191.02
442.048	14235.99
442.266	14288.68
442.484	14338.41
442.702	14390.84
442.919	14438.22
443.137	14485.32
443.355	14535.01
443.573	14583.77
443.79	14636.22
444.008	14685.9
444.226	14740.26
444.443	14795.88
444.661	14841.22
444.879	14887.13
445.096	14935.79
445.314	14988.28
445.532	15034.92
445.749	15079.61
445.967	15126.46
446.184	15170.41
446.402	15214.99
446.619	15264.21
446.837	15307.21
447.054	15348.44
447.272	15395.82
447.489	15439.55
447.707	15484.01
447.924	15535.19
448.141	15587.13
448.359	15634.93
448.576	15684.39
448.794	15727.84
449.011	15775.86
449.228	15823.48
449.446	15879.93
449.663	15932.86
449.88	15981.15
450.098	16033.68
450.315	16079.64
450.532	16127.17
450.749	16172.86
450.967	16222.21
451.184	16278.44
451.401	16326.3
451.618	16377.32
451.835	16422.33
452.052	16469.75
452.27	16519.55
452.487	16564.3
452.704	16616.1
452.921	16660.57
453.138	16709.1
453.355	16761.62
453.572	16807.81
453.789	16855.61
454.006	16903.75
454.223	16954.44
454.44	17007.5
