Data from test1_MAYP1115451__15__10-14-42-853.txt Node

Date: Wed Jun 12 10:14:42 MDT 2024
User: Modes Lab
Spectrometer: MAYP111545
Trigger mode: 0
Integration Time (sec): 8.000000E-3
Scans to average: 5
Electric dark correction enabled: true
Nonlinearity correction enabled: false
Boxcar width: 5
XAxis mode: Wavelengths
Number of Pixels in Spectrum: 2068
>>>>>Begin Spectral Data<<<<<
165.214	165.1
165.449	164.7
165.683	173.85
165.918	183.19
166.152	189.1
166.387	194.5
166.621	125.97
166.856	164.32
167.09	183.85
167.325	207.81
167.559	224.12
167.794	238.77
168.028	245.7
168.263	246.75
168.497	246.28
168.732	247.9
168.966	248.7
169.2	251.06
169.435	252.37
169.669	252.94
169.903	254.25
170.138	256.05
170.372	256.72
170.606	259.3
170.841	260.75
171.075	262.19
171.309	263.37
171.544	264.65
171.778	265.99
172.012	268.05
172.246	269.75
172.48	271.06
172.715	273.01
172.949	274.81
173.183	276.75
173.417	278.17
173.651	279.46
173.885	280.52
174.119	281.59
174.354	281.94
174.588	281.9
174.822	282.06
175.056	282.61
175.29	282.23
175.524	282.25
175.758	281.65
175.992	282.3
176.226	283.68
176.46	283.63
176.694	284.63
176.928	285.23
177.162	286.72
177.396	288.43
177.63	289.25
177.864	290.86
178.097	292.05
178.331	293.32
178.565	294.39
178.799	294.34
179.033	295.37
179.267	295.59
179.5	296.86
179.734	297.35
179.968	298.03
180.202	299.1
180.436	300.7
180.669	301.45
180.903	302.32
181.137	303.19
181.371	304.52
181.604	305.17
181.838	306.65
182.072	307.77
182.305	309.08
182.539	309.37
182.772	310.25
183.006	310.23
183.24	310.85
183.473	314.23
183.707	314.48
183.94	315.75
184.174	318.43
184.408	320.45
184.641	321.54
184.875	322.57
185.108	324.72
185.342	326.26
185.575	326.92
185.808	329.35
186.042	329.12
186.275	330.83
186.509	332.35
186.742	333.52
186.976	333.7
187.209	335.86
187.442	337.41
187.676	337.86
187.909	337.95
188.142	340.41
188.376	341.21
188.609	342.74
188.842	344.9
189.076	346.23
189.309	347.28
189.542	348.3
189.775	349.54
190.009	351.77
190.242	354.52
190.475	357.05
190.708	358.21
190.941	360.26
191.174	361.48
191.408	362.75
191.641	363.52
191.874	365.54
192.107	368.88
192.34	370.37
192.573	371.68
192.806	372.06
193.039	373.72
193.272	375.72
193.505	377.48
193.738	378.72
193.971	380.65
194.204	382.74
194.437	383.95
194.67	385.34
194.903	386.48
195.136	388.66
195.369	391.7
195.602	393.99
195.835	396.28
196.068	398.46
196.301	401.15
196.533	402.97
196.766	404.26
196.999	406.39
197.232	408.55
197.465	410.48
197.698	412.19
197.93	414.1
198.163	415.77
198.396	417.63
198.629	420.28
198.861	421.81
199.094	423.83
199.327	427.52
199.559	430.37
199.792	431.79
200.025	434.12
200.257	436.05
200.49	437.88
200.723	441.15
200.955	443.14
201.188	444.43
201.42	446.34
201.653	448.61
201.886	450.5
202.118	453.15
202.351	455.57
202.583	459.25
202.816	461.01
203.048	464.17
203.281	465.35
203.513	466.95
203.745	469.17
203.978	472.79
204.21	474.48
204.443	474.85
204.675	475.97
204.907	478.59
205.14	480.08
205.372	481.37
205.605	483.12
205.837	485.86
206.069	489.23
206.302	491.74
206.534	493.85
206.766	497.12
206.998	500.45
207.231	502.86
207.463	503.55
207.695	506.14
207.927	509.63
208.159	511.66
208.392	512.65
208.624	514.43
208.856	516.35
209.088	518.03
209.32	520.01
209.552	521.92
209.784	524.08
210.017	527.55
210.249	530.21
210.481	532.5
210.713	535.3
210.945	538.05
211.177	539.79
211.409	542.3
211.641	544.08
211.873	545.59
212.105	548.34
212.337	550.39
212.569	552.79
212.801	554.26
213.033	555.48
213.264	555.72
213.496	558.19
213.728	561.28
213.96	563.06
214.192	564.46
214.424	566.9
214.656	569.79
214.887	572.05
215.119	574.15
215.351	574.81
215.583	576.95
215.815	579.94
216.046	581.37
216.278	581.46
216.51	583.26
216.741	584.63
216.973	584.74
217.205	586.39
217.436	586.7
217.668	589.25
217.9	590.57
218.131	591.61
218.363	594.34
218.595	596.26
218.826	598.7
219.058	599.66
219.289	601.99
219.521	603.7
219.752	603.86
219.984	604.95
220.215	604.63
220.447	607.43
220.678	609.08
220.91	608.68
221.141	608.83
221.373	609.34
221.604	610.25
221.836	611.19
222.067	613.3
222.298	614.79
222.53	616.28
222.761	616.77
222.993	616.05
223.224	617.39
223.455	618.5
223.686	619.45
223.918	620.19
224.149	621.14
224.38	621.14
224.612	622.08
224.843	623.7
225.074	625.65
225.305	626.77
225.536	628.57
225.768	628.94
225.999	628.94
226.23	629.7
226.461	630.57
226.692	631.19
226.923	632.46
227.155	634.88
227.386	635.28
227.617	635.06
227.848	635.85
228.079	636.23
228.31	635.85
228.541	637.57
228.772	639.17
229.003	639.86
229.234	639.26
229.465	639.79
229.696	637.5
229.927	636.97
230.158	636.86
230.389	636.75
230.62	637.63
230.85	637.99
231.081	636.59
231.312	635.7
231.543	636.12
231.774	636.75
232.005	636.88
232.236	637.01
232.466	636.7
232.697	636.72
232.928	635.77
233.159	634.52
233.389	635.52
233.62	636.88
233.851	637.52
234.082	637.48
234.312	637.54
234.543	637.34
234.774	636.7
235.004	637.15
235.235	635.55
235.466	636.68
235.696	636.94
235.927	636.1
236.157	634.9
236.388	634.54
236.618	633.66
236.849	633.88
237.08	634.97
237.31	635.01
237.541	634.54
237.771	634.92
238.002	634.79
238.232	635.06
238.463	634.75
238.693	635.25
238.923	634.34
239.154	634.3
239.384	634.26
239.615	632.99
239.845	633.52
240.075	633.55
240.306	633.77
240.536	631.34
240.766	630.79
240.997	630.88
241.227	629.72
241.457	629.74
241.687	629.06
241.918	628.74
242.148	628.15
242.378	628.57
242.608	627.06
242.839	626.92
243.069	627.3
243.299	626.61
243.529	626.9
243.759	626.95
243.989	626.26
244.22	625.77
244.45	624.97
244.68	624.32
244.91	622.14
245.14	622.39
245.37	621.92
245.6	621.68
245.83	620.14
246.06	618.97
246.29	618.59
246.52	618.25
246.75	617.05
246.98	616.28
247.21	615.26
247.44	615.28
247.67	614.17
247.9	613.48
248.13	613.55
248.359	613.57
248.589	612.72
248.819	612.5
249.049	612.66
249.279	613.15
249.509	612.12
249.738	611.1
249.968	611.06
250.198	611.12
250.428	611.03
250.657	609.43
250.887	609.99
251.117	610.15
251.347	607.81
251.576	606.68
251.806	605.34
252.036	604.08
252.265	605.03
252.495	603.61
252.725	602.94
252.954	601.21
253.184	600.37
253.413	599.17
253.643	597.5
253.873	597.81
254.102	597.52
254.332	597.63
254.561	597.74
254.791	595.55
255.02	594.32
255.25	592.85
255.479	592.35
255.708	592.63
255.938	592.5
256.167	592.34
256.397	591.86
256.626	591.43
256.856	590.75
257.085	590.63
257.314	591.3
257.544	590.77
257.773	590.19
258.002	590.15
258.232	588.99
258.461	587.08
258.69	587.03
258.919	586.57
259.149	584.61
259.378	584.46
259.607	583.57
259.836	583.3
260.065	584.05
260.295	585.14
260.524	585.5
260.753	585.41
260.982	584.28
261.211	582.54
261.44	580.83
261.669	580.01
261.899	578.39
262.128	578.5
262.357	576.12
262.586	575.43
262.815	573.55
263.044	572.77
263.273	574.52
263.502	575.03
263.731	575.12
263.96	575.3
264.189	576.23
264.418	576.5
264.646	574.65
264.875	574.88
265.104	573.23
265.333	572.48
265.562	569.74
265.791	566.05
266.02	564.55
266.249	562.21
266.477	560.46
266.706	558.1
266.935	556.48
267.164	555.17
267.393	553.14
267.621	552.5
267.85	551.08
268.079	552.08
268.307	551.94
268.536	551.79
268.765	552.23
268.993	553.05
269.222	551.68
269.451	551.19
269.679	552.06
269.908	553.41
270.137	553.21
270.365	552.37
270.594	551.25
270.822	551.1
271.051	550.37
271.279	550.86
271.508	551.01
271.736	552.75
271.965	554.08
272.193	554.1
272.422	554.55
272.65	554.28
272.879	556.54
273.107	556.61
273.336	555.52
273.564	554.41
273.792	552.63
274.021	550.79
274.249	549.97
274.477	547.37
274.706	545.77
274.934	542.97
275.162	542.1
275.391	539.35
275.619	538.34
275.847	538.5
276.075	537.92
276.304	537.94
276.532	538.48
276.76	537.65
276.988	536.95
277.216	536.05
277.445	535.34
277.673	533.88
277.901	533.12
278.129	533.05
278.357	531.32
278.585	531.46
278.813	531.06
279.041	529.5
279.269	528.66
279.497	529.15
279.725	527.95
279.954	528.85
280.182	528.9
280.41	527.72
280.637	527.5
280.865	527.61
281.093	527.54
281.321	526.34
281.549	525.21
281.777	524.52
282.005	522.05
282.233	521.12
282.461	520.41
282.689	520.37
282.916	520.46
283.144	518.3
283.372	516.65
283.6	515.28
283.828	513.99
284.055	513.28
284.283	513.34
284.511	514.17
284.739	515.61
284.966	513.48
285.194	512.41
285.422	511.97
285.649	511.65
285.877	511.41
286.105	511.57
286.332	512.55
286.56	512.79
286.788	512.63
287.015	512.65
287.243	511.66
287.47	511.92
287.698	511.85
287.925	512.12
288.153	513.15
288.381	512.59
288.608	511.63
288.836	511.39
289.063	509.99
289.29	508.68
289.518	507.05
289.745	506.39
289.973	506.01
290.2	505.12
290.428	504.92
290.655	502.88
290.882	502.81
291.11	502.14
291.337	499.32
291.564	499.7
291.792	498.32
292.019	497.72
292.246	497.61
292.473	496.85
292.701	497.01
292.928	495.23
293.155	495.34
293.382	494.1
293.61	493.52
293.837	493.34
294.064	493.21
294.291	492.77
294.518	492.1
294.745	490.68
294.972	490.23
295.2	488.37
295.427	488.65
295.654	487.88
295.881	487.54
296.108	486.72
296.335	486.75
296.562	486.08
296.789	486.15
297.016	486.03
297.243	485.57
297.47	485.7
297.697	485.54
297.924	483.7
298.151	482.48
298.378	482.28
298.604	482.1
298.831	481.35
299.058	480.81
299.285	480.43
299.512	479.81
299.739	479.81
299.966	478.74
300.192	478.92
300.419	479.75
300.646	480.1
300.873	479.32
301.099	478.86
301.326	478.46
301.553	477.72
301.78	477.45
302.006	478.08
302.233	476.81
302.46	476.72
302.686	476.28
302.913	474.95
303.14	474.83
303.366	475.28
303.593	474.95
303.819	475.12
304.046	474.75
304.272	474.21
304.499	472.75
304.725	473.5
304.952	472.57
305.179	470.75
305.405	471.12
305.631	470.26
305.858	469.63
306.084	469.26
306.311	468.74
306.537	467.72
306.764	467.25
306.99	468.06
307.216	467.54
307.443	468.34
307.669	469.7
307.895	468.85
308.122	468.25
308.348	468.15
308.574	467.23
308.801	467.61
309.027	467.83
309.253	466.75
309.479	465.39
309.706	464.92
309.932	463.66
310.158	462.43
310.384	461.77
310.61	462.54
310.837	461.39
311.063	461.65
311.289	460.59
311.515	461.41
311.741	461.41
311.967	461.79
312.193	462.05
312.419	461.59
312.645	461.52
312.871	461.14
313.097	460.77
313.323	462.12
313.549	463.15
313.775	464.01
314.001	462.85
314.227	463.23
314.453	463.52
314.679	463.85
314.905	465.05
315.131	466.43
315.357	467.59
315.583	467.19
315.809	466.26
316.034	465.94
316.26	465.94
316.486	466.57
316.712	467.39
316.938	466.99
317.163	466.61
317.389	466.39
317.615	465.97
317.841	466.59
318.066	467.57
318.292	469.19
318.518	469.68
318.743	469.99
318.969	470.63
319.195	471.52
319.42	472.66
319.646	474.05
319.872	474.54
320.097	474.5
320.323	475.54
320.548	477.01
320.774	478.03
320.999	480.19
321.225	482.01
321.45	483.1
321.676	483.39
321.901	484.28
322.127	485.77
322.352	488.25
322.578	490.59
322.803	491.97
323.029	492.94
323.254	494.43
323.479	494.92
323.705	495.41
323.93	497.88
324.155	499.92
324.381	500.9
324.606	502.63
324.831	504.15
325.057	505.92
325.282	507.88
325.507	509.21
325.732	511.45
325.958	514.1
326.183	517.35
326.408	519.23
326.633	523.06
326.858	527.12
327.084	529.35
327.309	531.23
327.534	535.41
327.759	536.65
327.984	541.34
328.209	544.08
328.434	546.5
328.659	549.55
328.884	553.05
329.109	555.05
329.334	557.57
329.559	561.54
329.784	564.61
330.009	566.68
330.234	571.85
330.459	573.95
330.684	577.32
330.909	581.12
331.134	584.57
331.359	587.21
331.584	591.5
331.809	595.14
332.034	598.41
332.259	602.46
332.483	608.15
332.708	611.88
332.933	616.95
333.158	622.17
333.383	627.19
333.607	633.63
333.832	639.41
334.057	643.72
334.282	649.75
334.506	654.32
334.731	661.14
334.956	665.99
335.18	671.85
335.405	676.17
335.63	680.83
335.854	685.75
336.079	688.95
336.303	694.65
336.528	701.15
336.753	706.7
336.977	713.94
337.202	719.15
337.426	724.48
337.651	731.94
337.875	739.94
338.1	747.15
338.324	753.37
338.549	762.21
338.773	769.97
338.997	777.55
339.222	785.35
339.446	791.26
339.671	798.65
339.895	805.9
340.119	812.05
340.344	818.59
340.568	826.88
340.792	836.19
341.017	842.88
341.241	849.15
341.465	856.32
341.689	864.46
341.914	873.66
342.138	881.19
342.362	889.88
342.586	898.05
342.811	907.34
343.035	917.5
343.259	925.45
343.483	933.79
343.707	943.41
343.931	952.55
344.155	960.08
344.38	967.94
344.604	978.65
344.828	987.65
345.052	998.35
345.276	1006.7
345.5	1014.1
345.724	1024.35
345.948	1034.14
346.172	1045.06
346.396	1055.79
346.62	1067.77
346.844	1078.81
347.068	1087.74
347.292	1098.99
347.515	1108.86
347.739	1122.86
347.963	1131.61
348.187	1140.41
348.411	1150.97
348.635	1161.08
348.859	1171.45
349.082	1181.43
349.306	1191.61
349.53	1204.05
349.754	1214.63
349.977	1224.95
350.201	1233.55
350.425	1244.86
350.649	1257.23
350.872	1268.86
351.096	1279.85
351.32	1290.81
351.543	1303.39
351.767	1316.25
351.99	1325.7
352.214	1335.85
352.438	1348.14
352.661	1359.52
352.885	1372.3
353.108	1383.97
353.332	1395.66
353.555	1406.79
353.779	1417.92
354.002	1428.57
354.226	1439.46
354.449	1453.7
354.673	1466.45
354.896	1476.12
355.12	1488.05
355.343	1501.17
355.566	1514.1
355.79	1526.06
356.013	1539.7
356.237	1551.92
356.46	1564.25
356.683	1575.85
356.907	1587.32
357.13	1599.46
357.353	1613.41
357.576	1626.5
357.8	1638.26
358.023	1648.65
358.246	1662.92
358.469	1676.23
358.693	1689.46
358.916	1703.14
359.139	1719.19
359.362	1731.34
359.585	1745.35
359.808	1759.28
360.031	1772.55
360.255	1784.99
360.478	1799.5
360.701	1812.32
360.924	1822.45
361.147	1835.34
361.37	1848.46
361.593	1861.57
361.816	1876.26
362.039	1889.63
362.262	1904.06
362.485	1917.85
362.708	1931.41
362.931	1945.94
363.154	1958.15
363.377	1974.35
363.599	1988.45
363.822	2000.72
364.045	2012.3
364.268	2026.1
364.491	2042.19
364.714	2055.81
364.936	2069.55
365.159	2082.63
365.382	2096.81
365.605	2112.06
365.828	2127.7
366.05	2142.08
366.273	2159.45
366.496	2174.66
366.718	2190.7
366.941	2202.75
367.164	2218.28
367.386	2232.65
367.609	2252.5
367.832	2268.77
368.054	2285.35
368.277	2298.43
368.5	2315.63
368.722	2329.05
368.945	2347.79
369.167	2364.95
369.39	2383.63
369.612	2401.79
369.835	2419.7
370.057	2435.74
370.28	2454.08
370.502	2472.37
370.725	2490.45
370.947	2507.54
371.169	2527.57
371.392	2543.34
371.614	2559.01
371.837	2573.75
372.059	2588.74
372.281	2606.66
372.504	2624.23
372.726	2640.65
372.948	2657.74
373.171	2678.08
373.393	2696.52
373.615	2712.99
373.837	2732.23
374.06	2748.57
374.282	2769.68
374.504	2789.83
374.726	2808.5
374.948	2826.95
375.17	2843.92
375.393	2860.75
375.615	2876.46
375.837	2896.5
376.059	2917.35
376.281	2936.01
376.503	2959.25
376.725	2979.26
376.947	2998.81
377.169	3018.79
377.391	3036.06
377.613	3058.61
377.835	3080.05
378.057	3103.08
378.279	3122.26
378.501	3141.88
378.723	3162.68
378.945	3183.77
379.167	3204.7
379.389	3227.26
379.611	3248.54
379.833	3275.48
380.054	3297.34
380.276	3322.77
380.498	3346.75
380.72	3372.03
380.942	3396.95
381.163	3420.9
381.385	3444.79
381.607	3470.17
381.829	3493.46
382.05	3521.54
382.272	3546.37
382.494	3574.45
382.716	3597.54
382.937	3623.99
383.159	3648.99
383.381	3674.92
383.602	3702.08
383.824	3729.14
384.045	3757.54
384.267	3784.86
384.488	3811.41
384.71	3836.94
384.932	3863.77
385.153	3891.23
385.375	3916.77
385.596	3945.05
385.818	3974.66
386.039	4002.37
386.261	4027.12
386.482	4053.55
386.703	4080.5
386.925	4107.79
387.146	4136.81
387.368	4163.34
387.589	4190.21
387.81	4217.77
388.032	4246.55
388.253	4271.95
388.474	4302.39
388.696	4331.83
388.917	4360.57
389.138	4389.52
389.359	4419.46
389.581	4448.63
389.802	4478.55
390.023	4509.97
390.244	4541.88
390.465	4571.68
390.687	4604.25
390.908	4634.17
391.129	4667.26
391.35	4697.99
391.571	4733.45
391.792	4760.99
392.013	4791.06
392.234	4824.1
392.455	4857.41
392.677	4888.08
392.898	4919.21
393.119	4949.48
393.34	4981.21
393.561	5014.74
393.782	5048.45
394.003	5077.65
394.223	5115.45
394.444	5149.1
394.665	5181.63
394.886	5217.66
395.107	5256.9
395.328	5293.32
395.549	5329.85
395.77	5365.48
395.99	5401.14
396.211	5434.48
396.432	5472.03
396.653	5507.45
396.874	5544.57
397.094	5577.65
397.315	5608.74
397.536	5636.48
397.757	5669.12
397.977	5705.43
398.198	5740.01
398.419	5771.81
398.639	5810.1
398.86	5840.66
399.081	5873.99
399.301	5905.72
399.522	5941.28
399.742	5976.94
399.963	6014.28
400.184	6051.1
400.404	6084.65
400.625	6118.75
400.845	6155.88
401.066	6187.21
401.286	6225.77
401.507	6257.19
401.727	6296.35
401.948	6336.65
402.168	6374.19
402.388	6410.74
402.609	6446.99
402.829	6479.68
403.05	6512.34
403.27	6546.79
403.49	6581.25
403.711	6614.37
403.931	6653.85
404.151	6688.72
404.372	6721.97
404.592	6754.68
404.812	6787.14
405.032	6818.65
405.253	6857.39
405.473	6894.17
405.693	6931.05
405.913	6968.86
406.133	7006.39
406.353	7038.59
406.574	7070.86
406.794	7106.35
407.014	7141.08
407.234	7176.61
407.454	7213.19
407.674	7248.1
407.894	7290.23
408.114	7321.25
408.334	7357.57
408.554	7394.81
408.774	7435.06
408.994	7472.94
409.214	7512.59
409.434	7555.59
409.654	7598.72
409.874	7638.48
410.094	7675.59
410.314	7710.45
410.534	7753.75
410.754	7794.35
410.974	7829.83
411.193	7866.45
411.413	7904.28
411.633	7937.37
411.853	7974.06
412.073	8006.72
412.292	8049.79
412.512	8088.83
412.732	8128.43
412.952	8165.3
413.171	8201.79
413.391	8247.35
413.611	8291.92
413.831	8340.03
414.05	8387.12
414.27	8426.01
414.489	8470.77
414.709	8508.83
414.929	8552.01
415.148	8592.7
415.368	8636.74
415.587	8682.66
415.807	8719.21
416.026	8762.99
416.246	8800.81
416.465	8839.46
416.685	8887.7
416.904	8931.08
417.124	8977.39
417.343	9021.65
417.563	9072.03
417.782	9115.01
418.002	9156.97
418.221	9207.14
418.44	9249.54
418.66	9296.25
418.879	9341.86
419.098	9380.66
419.318	9429.99
419.537	9468.74
419.756	9511.95
419.976	9550.32
420.195	9600.34
420.414	9644.08
420.633	9686.23
420.853	9726.7
421.072	9770.86
421.291	9815.03
421.51	9861.52
421.729	9899.68
421.948	9946.74
422.168	9993.63
422.387	10037.5
422.606	10075.81
422.825	10118.03
423.044	10159.35
423.263	10204.72
423.482	10249.3
423.701	10290.45
423.92	10338.06
424.139	10383.08
424.358	10428.06
424.577	10473.03
424.796	10518.21
425.015	10568.57
425.234	10617.05
425.453	10664.95
425.672	10709.79
425.891	10751.45
426.11	10800.99
426.328	10841.03
426.547	10889.61
426.766	10934.65
426.985	10978.9
427.204	11026.59
427.422	11071.3
427.641	11115.79
427.86	11164.12
428.079	11214.41
428.297	11265.23
428.516	11311.37
428.735	11366.19
428.954	11417.86
429.172	11464.55
429.391	11512.23
429.61	11555.9
429.828	11602.43
430.047	11652.05
430.265	11698.14
430.484	11739.01
430.703	11779.63
430.921	11827.55
431.14	11868.41
431.358	11908.81
431.577	11951.59
431.795	11998.55
432.014	12051.41
432.232	12097.85
432.451	12148.81
432.669	12197.7
432.887	12249.28
433.106	12301.86
433.324	12352.03
433.543	12403.55
433.761	12454.72
433.979	12510.99
434.198	12558.06
434.416	12601.19
434.634	12646.57
434.853	12690.9
435.071	12740.26
435.289	12788.63
435.507	12838.05
435.726	12879.7
435.944	12922.23
436.162	12965.43
436.38	13003.79
436.598	13052.43
436.817	13097.08
437.035	13145.63
437.253	13191.19
437.471	13240.06
437.689	13285.46
437.907	13330.05
438.125	13379.08
438.343	13424.85
438.561	13472.26
438.78	13526.43
438.998	13575.06
439.216	13623.83
439.434	13670.99
439.652	13717.92
439.869	13760.05
440.087	13807.01
440.305	13852.55
440.523	13899.63
440.741	13950.39
440.959	14006.35
441.177	14057.17
441.395	14104.32
441.613	14157.14
441.831	14205.66
442.048	14256.39
442.266	14299.99
442.484	14350.17
442.702	14398.43
442.919	14446.57
443.137	14493.46
443.355	14540.3
443.573	14591.08
443.79	14639.06
444.008	14685.75
444.226	14734.08
444.443	14783.83
444.661	14834.19
444.879	14883.72
445.096	14935.79
445.314	14987.15
445.532	15043.26
445.749	15088.15
445.967	15129.52
446.184	15178.68
446.402	15227.92
446.619	15273.65
446.837	15315.75
447.054	15370.12
447.272	15415.85
447.489	15460.79
447.707	15505.77
447.924	15546.34
448.141	15588.75
448.359	15637.77
448.576	15691.77
448.794	15740.95
449.011	15795.72
449.228	15843.1
449.446	15886.55
449.663	15935.3
449.88	15982.88
450.098	16034.01
450.315	16083.48
450.532	16138.35
450.749	16184.7
450.967	16231.1
451.184	16279.99
451.401	16326.06
451.618	16383.39
451.835	16434.85
452.052	16487.95
452.27	16537.28
452.487	16583.23
452.704	16632.01
452.921	16677.65
453.138	16726.21
453.355	16764.88
453.572	16804.17
453.789	16857.37
454.006	16895.54
454.223	16944.12
454.44	16988.19
