Data from test1_MAYP1115451__29__10-14-47-596.txt Node

Date: Wed Jun 12 10:14:47 MDT 2024
User: Modes Lab
Spectrometer: MAYP111545
Trigger mode: 0
Integration Time (sec): 8.000000E-3
Scans to average: 5
Electric dark correction enabled: true
Nonlinearity correction enabled: false
Boxcar width: 5
XAxis mode: Wavelengths
Number of Pixels in Spectrum: 2068
>>>>>Begin Spectral Data<<<<<
165.214	166.5
165.449	166.26
165.683	175.82
165.918	183.64
166.152	190.66
166.387	195.53
166.621	126.6
166.856	165.09
167.09	184.33
167.325	208.11
167.559	224.18
167.794	238.4
168.028	246.11
168.263	246.47
168.497	246.96
168.732	247.4
168.966	248.56
169.2	250.93
169.435	252.84
169.669	253.65
169.903	255.36
170.138	256.91
170.372	258.84
170.606	260.55
170.841	262.85
171.075	264.89
171.309	266.47
171.544	267.4
171.778	269.16
172.012	269.87
172.246	271.11
172.48	272.91
172.715	275.35
172.949	276.55
173.183	278.45
173.417	280.05
173.651	282.02
173.885	283.07
174.119	284.42
174.354	285.42
174.588	285.91
174.822	286.73
175.056	286.15
175.29	284.8
175.524	285.02
175.758	284.05
175.992	283.82
176.226	283.04
176.46	283.16
176.694	283.69
176.928	283.65
177.162	285.07
177.396	286.42
177.63	287.75
177.864	289.65
178.097	290.31
178.331	291.05
178.565	291.84
178.799	293.02
179.033	293.71
179.267	294.96
179.5	295.4
179.734	295.44
179.968	295.91
180.202	297.75
180.436	298.76
180.669	299.67
180.903	301.75
181.137	302.76
181.371	303.91
181.604	305.36
181.838	306.58
182.072	308.38
182.305	310
182.539	311.04
182.772	310.55
183.006	311.29
183.24	312.35
183.473	315.65
183.707	317.42
183.94	317.38
184.174	318.02
184.408	319.02
184.641	320.35
184.875	321.51
185.108	323.55
185.342	325.49
185.575	326.69
185.808	328.47
186.042	327.82
186.275	328.24
186.509	330.16
186.742	331.76
186.976	332.71
187.209	333.27
187.442	335.04
187.676	334.69
187.909	336.64
188.142	337.36
188.376	338.11
188.609	338.84
188.842	340.15
189.076	341.53
189.309	342.4
189.542	343.98
189.775	345.05
190.009	346.36
190.242	349.87
190.475	350.62
190.708	352.93
190.941	355.6
191.174	357.05
191.408	358.96
191.641	361.11
191.874	363.33
192.107	365.64
192.34	368.58
192.573	370.11
192.806	371.71
193.039	373.84
193.272	375.91
193.505	376.71
193.738	379.13
193.971	381.2
194.204	382.35
194.437	384.69
194.67	386.56
194.903	388.31
195.136	389.8
195.369	391.56
195.602	393.35
195.835	395.84
196.068	397.44
196.301	400.04
196.533	402.6
196.766	405.47
196.999	408.24
197.232	409.58
197.465	410.6
197.698	413.6
197.93	415.15
198.163	417.73
198.396	418.82
198.629	421.11
198.861	422.73
199.094	424.04
199.327	426.22
199.559	426.02
199.792	428.47
200.025	431.71
200.257	433.38
200.49	435.42
200.723	437.33
200.955	439.71
201.188	441.65
201.42	443.36
201.653	446.45
201.886	448.29
202.118	451.4
202.351	453.49
202.583	455.25
202.816	457.64
203.048	459.84
203.281	461.6
203.513	463.36
203.745	466.71
203.978	469.16
204.21	471.07
204.443	473
204.675	474.89
204.907	476.47
205.14	479.02
205.372	482.04
205.605	485.31
205.837	488.27
206.069	492
206.302	493.49
206.534	495
206.766	497.31
206.998	499.29
207.231	502.22
207.463	505.45
207.695	508.95
207.927	510.38
208.159	511.84
208.392	513.05
208.624	514.98
208.856	517.31
209.088	520.2
209.32	522
209.552	524.42
209.784	526.93
210.017	528.42
210.249	530
210.481	531.24
210.713	532.98
210.945	535.55
211.177	537.67
211.409	540.4
211.641	542.11
211.873	543.8
212.105	545.89
212.337	546.95
212.569	548.45
212.801	549.93
213.033	552.33
213.264	554.44
213.496	556.35
213.728	558.15
213.96	559.2
214.192	560.89
214.424	563.67
214.656	566.33
214.887	568.82
215.119	572.56
215.351	574.89
215.583	577.04
215.815	579.69
216.046	581.8
216.278	582.75
216.51	584.82
216.741	586.44
216.973	586.95
217.205	587.69
217.436	588.91
217.668	591.07
217.9	591.89
218.131	592.62
218.363	594.38
218.595	595.42
218.826	597.09
219.058	597.67
219.289	599.78
219.521	601.07
219.752	603.27
219.984	604.69
220.215	604.09
220.447	606.44
220.678	607.16
220.91	607.42
221.141	608.07
221.373	609.65
221.604	611.18
221.836	612.71
222.067	614.25
222.298	614.62
222.53	615.56
222.761	617.56
222.993	618.04
223.224	620.49
223.455	620.98
223.686	623.87
223.918	625.42
224.149	626.51
224.38	626.25
224.612	626.38
224.843	627.87
225.074	628.95
225.305	629.22
225.536	628.8
225.768	629.73
225.999	630.87
226.23	629.2
226.461	628.82
226.692	628.75
226.923	628.8
227.155	631
227.386	630.75
227.617	631.58
227.848	632.45
228.079	633.64
228.31	632.75
228.541	632.36
228.772	634.11
229.003	635.09
229.234	636.71
229.465	638.11
229.696	638.73
229.927	639
230.158	638.49
230.389	636.56
230.62	637.49
230.85	638.51
231.081	638.65
231.312	637.65
231.543	636.91
231.774	637.33
232.005	637.02
232.236	635.95
232.466	636.51
232.697	637.67
232.928	639.29
233.159	637.78
233.389	637.4
233.62	637.56
233.851	638.91
234.082	638
234.312	637.04
234.543	637.69
234.774	636.27
235.004	634.93
235.235	633.73
235.466	632.73
235.696	633.84
235.927	633.2
236.157	633.47
236.388	633.11
236.618	634.11
236.849	633.58
237.08	633.05
237.31	633.58
237.541	634.11
237.771	633.85
238.002	635.4
238.232	634.25
238.463	634.87
238.693	634.36
238.923	633.4
239.154	632.15
239.384	632.65
239.615	632.44
239.845	632.11
240.075	632.96
240.306	632.11
240.536	630.6
240.766	630.49
240.997	629.96
241.227	629.95
241.457	629.47
241.687	630.45
241.918	629.07
242.148	628.6
242.378	628.18
242.608	625.38
242.839	625.87
243.069	625.2
243.299	624.95
243.529	626.11
243.759	625.69
243.989	625.36
244.22	624.24
244.45	625.33
244.68	623.98
244.91	625.02
245.14	626
245.37	625.58
245.6	625.8
245.83	625.45
246.06	622.89
246.29	622.95
246.52	623.02
246.75	621.47
246.98	620.6
247.21	620.78
247.44	619.91
247.67	619.55
247.9	619.55
248.13	617.91
248.359	616.75
248.589	616.47
248.819	615.11
249.049	614.69
249.279	614.53
249.509	613.47
249.738	612.69
249.968	611.44
250.198	609.49
250.428	607.91
250.657	607.36
250.887	606.4
251.117	605.38
251.347	604.55
251.576	602.09
251.806	602.65
252.036	600.93
252.265	600.42
252.495	598.93
252.725	597.87
252.954	598.45
253.184	598.78
253.413	598.11
253.643	597.04
253.873	597.15
254.102	596.65
254.332	595.2
254.561	596.65
254.791	595.27
255.02	595.36
255.25	596.36
255.479	595.22
255.708	593.58
255.938	593.13
256.167	594.07
256.397	593.27
256.626	593.8
256.856	592.55
257.085	590.93
257.314	590.56
257.544	589.67
257.773	589.85
258.002	588.09
258.232	587.93
258.461	589.05
258.69	588.31
258.919	587.13
259.149	585.71
259.378	585.71
259.607	584.91
259.836	584.58
260.065	584.98
260.295	582.96
260.524	582.76
260.753	580.31
260.982	578.6
261.211	577.58
261.44	575.07
261.669	575.69
261.899	574.42
262.128	572.85
262.357	570.55
262.586	569.4
262.815	568.27
263.044	567.78
263.273	570.84
263.502	570.11
263.731	569.84
263.96	569.96
264.189	569
264.418	567.6
264.646	567.64
264.875	567.51
265.104	565.87
265.333	566.09
265.562	565
265.791	562.87
266.02	560.29
266.249	557.8
266.477	557.6
266.706	554.65
266.935	554.25
267.164	554.02
267.393	553.18
267.621	553.31
267.85	550.91
268.079	549.91
268.307	547.65
268.536	547.38
268.765	547.05
268.993	548.73
269.222	549.55
269.451	550.93
269.679	549.47
269.908	549.96
270.137	548.87
270.365	549.16
270.594	549.36
270.822	549.96
271.051	551.33
271.279	552.51
271.508	551.16
271.736	551.25
271.965	551.05
272.193	552.15
272.422	552.91
272.65	553.71
272.879	554.38
273.107	554.49
273.336	554.27
273.564	553.25
273.792	552.45
274.021	551.36
274.249	550.11
274.477	548.15
274.706	545.6
274.934	544.78
275.162	543.07
275.391	541.24
275.619	540.42
275.847	539.22
276.075	537.91
276.304	536.16
276.532	536.24
276.76	535.6
276.988	535.11
277.216	536.11
277.445	535.16
277.673	533.29
277.901	533.85
278.129	532.65
278.357	531.71
278.585	530.8
278.813	531.11
279.041	529.38
279.269	528.89
279.497	528.89
279.725	527.42
279.954	526.84
280.182	528.16
280.41	527.42
280.637	527.11
280.865	527.38
281.093	528.13
281.321	526.4
281.549	526.09
281.777	527.05
282.005	526.07
282.233	526.13
282.461	524.44
282.689	523.69
282.916	523.22
283.144	522.51
283.372	521.82
283.6	520.87
283.828	520.73
284.055	520.24
284.283	518.6
284.511	518.11
284.739	517.8
284.966	517.84
285.194	516.73
285.422	514.98
285.649	513.33
285.877	512.96
286.105	511.82
286.332	512.31
286.56	512.82
286.788	511.09
287.015	511.09
287.243	509.38
287.47	509.22
287.698	507.65
287.925	507.22
288.153	508.58
288.381	507.16
288.608	507.75
288.836	506.22
289.063	504.55
289.29	505.8
289.518	504.09
289.745	503.89
289.973	503.05
290.2	503.53
290.428	503.49
290.655	500.98
290.882	500.24
291.11	499.07
291.337	498.75
291.564	497.6
291.792	495.65
292.019	494.71
292.246	494.73
292.473	493.75
292.701	494.33
292.928	493.64
293.155	493.82
293.382	493.87
293.61	493.78
293.837	493.47
294.064	493.75
294.291	493.56
294.518	493.53
294.745	492.15
294.972	491.47
295.2	490.62
295.427	490.49
295.654	490.33
295.881	489.44
296.108	488.78
296.335	487.78
296.562	486.91
296.789	486.35
297.016	486.05
297.243	485.31
297.47	485.85
297.697	484.6
297.924	483.6
298.151	481.51
298.378	481.98
298.604	481.27
298.831	481.56
299.058	480.38
299.285	480.15
299.512	478.98
299.739	478.22
299.966	477.65
300.192	478.13
300.419	477.96
300.646	478.45
300.873	476.75
301.099	476.22
301.326	475.58
301.553	475.4
301.78	474.58
302.006	475.49
302.233	476.11
302.46	474.71
302.686	473.53
302.913	473.22
303.14	472.93
303.366	473.38
303.593	471.98
303.819	471.38
304.046	471.15
304.272	471.96
304.499	471.4
304.725	471.07
304.952	470.87
305.179	468.91
305.405	469.24
305.631	468.42
305.858	468.18
306.084	467.64
306.311	467.09
306.537	467.47
306.764	466
306.99	464.67
307.216	463.8
307.443	465.4
307.669	466.58
307.895	465.45
308.122	466.44
308.348	465.85
308.574	465.89
308.801	465.91
309.027	466.31
309.253	465.42
309.479	465.44
309.706	465.49
309.932	463.29
310.158	462.38
310.384	462
310.61	461.35
310.837	461.16
311.063	462.15
311.289	460.67
311.515	459.89
311.741	460.45
311.967	460.95
312.193	460.55
312.419	460.13
312.645	461.38
312.871	461.15
313.097	461.62
313.323	461.49
313.549	461.22
313.775	462.91
314.001	462.6
314.227	463.91
314.453	463.69
314.679	464.2
314.905	465.53
315.131	465.13
315.357	465.55
315.583	465.87
315.809	466.36
316.034	466.07
316.26	466.96
316.486	467.18
316.712	466.95
316.938	467.58
317.163	468.2
317.389	468.18
317.615	468.29
317.841	468.76
318.066	469.42
318.292	469.64
318.518	471.51
318.743	470.44
318.969	471.95
319.195	472.93
319.42	472.69
319.646	473.56
319.872	474.44
320.097	474.51
320.323	475.6
320.548	476.29
320.774	478.35
320.999	477.91
321.225	479.87
321.45	479.27
321.676	480.47
321.901	481.84
322.127	484
322.352	485.05
322.578	487.8
322.803	488.33
323.029	490.11
323.254	491.69
323.479	492.24
323.705	492.87
323.93	495.76
324.155	496.73
324.381	499.93
324.606	501.09
324.831	503.96
325.057	506.44
325.282	509.42
325.507	510.78
325.732	512.53
325.958	516.91
326.183	520.16
326.408	522.8
326.633	525.65
326.858	527.73
327.084	529.84
327.309	532.47
327.534	534.44
327.759	536.42
327.984	539.04
328.209	541.53
328.434	544.25
328.659	547.87
328.884	550.51
329.109	553.05
329.334	556.44
329.559	559.51
329.784	562.15
330.009	565.67
330.234	569.89
330.459	573.4
330.684	576.96
330.909	580
331.134	582.42
331.359	585.67
331.584	589.73
331.809	592.95
332.034	597.62
332.259	601.64
332.483	605.27
332.708	609.42
332.933	614.6
333.158	619.4
333.383	625.38
333.607	631.05
333.832	637.73
334.057	644.09
334.282	649.15
334.506	652.8
334.731	658.56
334.956	666.25
335.18	673.09
335.405	678.42
335.63	683.53
335.854	687.38
336.079	692.07
336.303	696.15
336.528	701.07
336.753	708.42
336.977	716.67
337.202	723.09
337.426	727.31
337.651	732.27
337.875	739.58
338.1	746.76
338.324	753.93
338.549	760.67
338.773	769.51
338.997	775.93
339.222	782.42
339.446	788.33
339.671	795.44
339.895	801.91
340.119	810.84
340.344	818.2
340.568	826.2
340.792	834.95
341.017	844.31
341.241	852.11
341.465	861.25
341.689	868.42
341.914	877.22
342.138	884.27
342.362	895.42
342.586	902.31
342.811	909.33
343.035	916.53
343.259	924.29
343.483	932.58
343.707	940.58
343.931	950.2
344.155	960.84
344.38	970.85
344.604	982.38
344.828	989.51
345.052	1000.05
345.276	1010.47
345.5	1021.44
345.724	1030.16
345.948	1040.42
346.172	1050.96
346.396	1059.33
346.62	1069.16
346.844	1078.56
347.068	1087
347.292	1098.09
347.515	1108.84
347.739	1120.98
347.963	1130.2
348.187	1144.31
348.411	1152.56
348.635	1162.35
348.859	1172.33
349.082	1181.38
349.306	1191.35
349.53	1202.24
349.754	1213.51
349.977	1225.22
350.201	1234.62
350.425	1247.73
350.649	1256.78
350.872	1269.89
351.096	1280.65
351.32	1292.76
351.543	1305.22
351.767	1316.24
351.99	1328.36
352.214	1339.89
352.438	1348.73
352.661	1357.95
352.885	1367.29
353.108	1379.24
353.332	1391.62
353.555	1402.87
353.779	1414.65
354.002	1427.36
354.226	1438.47
354.449	1450.47
354.673	1460.2
354.896	1473.93
355.12	1488.36
355.343	1500.44
355.566	1511.98
355.79	1523.09
356.013	1535.84
356.237	1546.2
356.46	1558.27
356.683	1573.25
356.907	1586.18
357.13	1602.31
357.353	1614.51
357.576	1628.07
357.8	1642
358.023	1653.49
358.246	1667.27
358.469	1680.36
358.693	1697.18
358.916	1709.11
359.139	1720.53
359.362	1733.71
359.585	1746.85
359.808	1760.22
360.031	1771.65
360.255	1784.64
360.478	1798.69
360.701	1811.93
360.924	1825.47
361.147	1837.04
361.37	1850.35
361.593	1865.69
361.816	1877.45
362.039	1890.15
362.262	1902.84
362.485	1916.36
362.708	1930.65
362.931	1945.64
363.154	1959.09
363.377	1971.71
363.599	1985.27
363.822	1998.45
364.045	2011.53
364.268	2025
364.491	2036.13
364.714	2049.89
364.936	2065.75
365.159	2080.56
365.382	2095.55
365.605	2109.09
365.828	2127.89
366.05	2142.16
366.273	2159.13
366.496	2174.47
366.718	2192.45
366.941	2210.62
367.164	2227.27
367.386	2242.36
367.609	2257.44
367.832	2274.6
368.054	2292.53
368.277	2305.56
368.5	2324.24
368.722	2340.05
368.945	2353.98
369.167	2369.04
369.39	2387.15
369.612	2403.51
369.835	2420.09
370.057	2437.2
370.28	2450.35
370.502	2468.31
370.725	2487.36
370.947	2503.24
371.169	2521.29
371.392	2541.24
371.614	2560.15
371.837	2577.13
372.059	2593.96
372.281	2612.05
372.504	2630.67
372.726	2649.18
372.948	2665.42
373.171	2679.84
373.393	2697.4
373.615	2714.78
373.837	2732.15
374.06	2750.05
374.282	2767.09
374.504	2785.89
374.726	2806.47
374.948	2824.85
375.17	2846.15
375.393	2867.13
375.615	2888.27
375.837	2907.6
376.059	2927.71
376.281	2948.49
376.503	2967.53
376.725	2986.02
376.947	3007.56
377.169	3026.71
377.391	3046.25
377.613	3065.71
377.835	3085.11
378.057	3105.11
378.279	3128.13
378.501	3150.27
378.723	3170.6
378.945	3192.24
379.167	3216.71
379.389	3238.04
379.611	3261.58
379.833	3285.25
380.054	3308.04
380.276	3330.4
380.498	3355.42
380.72	3376.95
380.942	3398.6
381.163	3424.11
381.385	3449.11
381.607	3473.38
381.829	3500.71
382.05	3523.96
382.272	3545.85
382.494	3569.75
382.716	3594.09
382.937	3619.13
383.159	3645.15
383.381	3672.11
383.602	3697.47
383.824	3723.45
384.045	3748.58
384.267	3772.02
384.488	3800.27
384.71	3827.65
384.932	3855.53
385.153	3883.8
385.375	3911.22
385.596	3939.95
385.818	3964.69
386.039	3991.4
386.261	4017.13
386.482	4044.15
386.703	4074.31
386.925	4103.05
387.146	4134.31
387.368	4163.31
387.589	4192.16
387.81	4220.45
388.032	4249.62
388.253	4282.76
388.474	4313.38
388.696	4345.29
388.917	4377.58
389.138	4403.82
389.359	4430.24
389.581	4462.31
389.802	4493.45
390.023	4522.51
390.244	4554.75
390.465	4583.51
390.687	4610.16
390.908	4645.13
391.129	4675.27
391.35	4704.78
391.571	4736.96
391.792	4770.24
392.013	4799.05
392.234	4830.25
392.455	4862.84
392.677	4893.45
392.898	4928.47
393.119	4963.51
393.34	4992.47
393.561	5023.87
393.782	5056.58
394.003	5094.18
394.223	5127.58
394.444	5161.13
394.665	5189.91
394.886	5223.85
395.107	5256.82
395.328	5288.42
395.549	5321.05
395.77	5353.2
395.99	5387.33
396.211	5422.36
396.432	5455.18
396.653	5490.64
396.874	5525.67
397.094	5566.04
397.315	5600.29
397.536	5632.93
397.757	5671.49
397.977	5706.95
398.198	5741.33
398.419	5779.58
398.639	5813.89
398.86	5845.35
399.081	5877.69
399.301	5909.51
399.522	5942.98
399.742	5976.58
399.963	6014.95
400.184	6047
400.404	6082.56
400.625	6118.24
400.845	6148.24
401.066	6181.93
401.286	6216.84
401.507	6251.04
401.727	6289.62
401.948	6327.56
402.168	6362.69
402.388	6396.64
402.609	6433.07
402.829	6467.6
403.05	6501.09
403.27	6542.65
403.49	6574.33
403.711	6612.4
403.931	6647.51
404.151	6684.51
404.372	6716.53
404.592	6750.87
404.812	6785.29
405.032	6813.58
405.253	6850.29
405.473	6886.29
405.693	6916.07
405.913	6956.93
406.133	6991.8
406.353	7035.29
406.574	7066.45
406.794	7103.89
407.014	7144.8
407.234	7183.69
407.454	7223.38
407.674	7255.11
407.894	7291.75
408.114	7331.02
408.334	7367.53
408.554	7405.29
408.774	7432.15
408.994	7473
409.214	7511.98
409.434	7549.93
409.654	7586.51
409.874	7627.75
410.094	7667.4
410.314	7703.38
410.534	7741.82
410.754	7780.96
410.974	7817.56
411.193	7860.93
411.413	7895.15
411.633	7931.38
411.853	7968.56
412.073	8006.09
412.292	8043.53
412.512	8081.96
412.732	8127.87
412.952	8166.09
413.171	8205.4
413.391	8248.25
413.611	8288.65
413.831	8333.18
414.05	8376.69
414.27	8420.82
414.489	8461.95
414.709	8508.33
414.929	8553.38
415.148	8594.47
415.368	8636.58
415.587	8681.05
415.807	8722.18
416.026	8765.4
416.246	8807
416.465	8847.91
416.685	8890.05
416.904	8935.15
417.124	8973.49
417.343	9016.24
417.563	9060.67
417.782	9107.22
418.002	9150.25
418.221	9195.93
418.44	9235.71
418.66	9277.38
418.879	9318.44
419.098	9355.58
419.318	9399.98
419.537	9448.31
419.756	9495.71
419.976	9536.22
420.195	9581.71
420.414	9624.78
420.633	9666.11
420.853	9717.84
421.072	9764.2
421.291	9810.24
421.51	9855.62
421.729	9898.95
421.948	9939.84
422.168	9979.38
422.387	10024.8
422.606	10068.07
422.825	10111.44
423.044	10159.55
423.263	10196.8
423.482	10243.8
423.701	10288.31
423.92	10332.11
424.139	10375.38
424.358	10422.58
424.577	10464.78
424.796	10512.13
425.015	10552.71
425.234	10599.58
425.453	10644.22
425.672	10695.18
425.891	10734.58
426.11	10782.27
426.328	10828.4
426.547	10874.05
426.766	10916.71
426.985	10970.62
427.204	11016.75
427.422	11068.62
427.641	11115.67
427.86	11162.65
428.079	11209.82
428.297	11261.49
428.516	11311.38
428.735	11365.58
428.954	11417.69
429.172	11466.53
429.391	11513.71
429.61	11557.95
429.828	11607.8
430.047	11651.45
430.265	11694.76
430.484	11738.76
430.703	11781.38
430.921	11825.25
431.14	11867.95
431.358	11915.27
431.577	11962.82
431.795	12009.62
432.014	12060.29
432.232	12109.18
432.451	12158.73
432.669	12206.84
432.887	12258.29
433.106	12306.76
433.324	12354.4
433.543	12407.75
433.761	12454.36
433.979	12500.36
434.198	12550.82
434.416	12598.53
434.634	12640.98
434.853	12687.75
435.071	12741.07
435.289	12785.15
435.507	12830.93
435.726	12883.15
435.944	12927.05
436.162	12971.4
436.38	13017.64
436.598	13054.8
436.817	13100.76
437.035	13148.62
437.253	13201.58
437.471	13245.87
437.689	13295.09
437.907	13346.51
438.125	13387.27
438.343	13434.2
438.561	13482.2
438.78	13539.51
438.998	13590.69
439.216	13633.98
439.434	13682.42
439.652	13726.47
439.869	13774.73
440.087	13825.04
440.305	13870.96
440.523	13923
440.741	13971.09
440.959	14021.64
441.177	14063.35
441.395	14115.62
441.613	14167.33
441.831	14211.75
442.048	14256.45
442.266	14301
442.484	14346.4
442.702	14397.18
442.919	14440.82
443.137	14492
443.355	14544.91
443.573	14594.42
443.79	14639.58
444.008	14692.38
444.226	14740.47
444.443	14790.85
444.661	14844.44
444.879	14891.47
445.096	14941.67
445.314	14994.76
445.532	15039.82
445.749	15081.78
445.967	15127.13
446.184	15181.47
446.402	15221.89
446.619	15272.71
446.837	15321.33
447.054	15366.95
447.272	15417.95
447.489	15462.51
447.707	15510.84
447.924	15564.4
448.141	15614.91
448.359	15665.67
448.576	15713.18
448.794	15770.6
449.011	15824.15
449.228	15866.89
449.446	15910.71
449.663	15955.31
449.88	15999.91
450.098	16043.56
450.315	16085.89
450.532	16128.85
450.749	16175
450.967	16224.58
451.184	16266.11
451.401	16312.73
451.618	16368.15
451.835	16415.6
452.052	16461.95
452.27	16516.56
452.487	16563.07
452.704	16620.8
452.921	16680.51
453.138	16722.93
453.355	16768.02
453.572	16816.89
453.789	16862
454.006	16909.18
454.223	16959.65
454.44	17007.55
454.657	17055.31
454.874	17106.4
455.091	17145.33
455.308	17191.47
