Data from test1_MAYP1115451__60__10-14-57-976.txt Node

Date: Wed Jun 12 10:14:57 MDT 2024
User: Modes Lab
Spectrometer: MAYP111545
Trigger mode: 0
Integration Time (sec): 8.000000E-3
Scans to average: 5
Electric dark correction enabled: true
Nonlinearity correction enabled: false
Boxcar width: 5
XAxis mode: Wavelengths
Number of Pixels in Spectrum: 2068
>>>>>Begin Spectral Data<<<<<
165.214	164.13
165.449	163.84
165.683	172.74
165.918	182.04
166.152	188.79
166.387	193.94
166.621	125.54
166.856	164.78
167.09	183.9
167.325	207.54
167.559	223.98
167.794	238.41
168.028	245.9
168.263	247.63
168.497	247.39
168.732	248.05
168.966	248.88
169.2	250.45
169.435	251.85
169.669	253.1
169.903	255.47
170.138	256.34
170.372	258.78
170.606	260.74
170.841	261.65
171.075	262.83
171.309	264.08
171.544	266.1
171.778	268.61
172.012	269.54
172.246	270.68
172.48	271.1
172.715	273.01
172.949	274.98
173.183	277.07
173.417	279.47
173.651	281.72
173.885	283.67
174.119	284.63
174.354	284.03
174.588	284.92
174.822	285.61
175.056	286.23
175.29	286.87
175.524	284.72
175.758	283.85
175.992	283.08
176.226	282.54
176.46	281.87
176.694	282.3
176.928	283.23
177.162	284.5
177.396	285.19
177.63	285.7
177.864	286.5
178.097	288.58
178.331	290.56
178.565	292.63
178.799	293.47
179.033	294.58
179.267	296.1
179.5	297.32
179.734	297.34
179.968	298.38
180.202	299.05
180.436	300.38
180.669	300.88
180.903	300.52
181.137	299.72
181.371	301.43
181.604	302.59
181.838	303.08
182.072	304.38
182.305	305.12
182.539	306.07
182.772	307.05
183.006	307.43
183.24	308.01
183.473	311.52
183.707	313.98
183.94	313.96
184.174	315.16
184.408	316.78
184.641	318.14
184.875	320.18
185.108	321.61
185.342	323.47
185.575	325.36
185.808	327.32
186.042	326.65
186.275	328.07
186.509	329.25
186.742	330.45
186.976	331.54
187.209	332.48
187.442	333.23
187.676	335.16
187.909	335.76
188.142	337.65
188.376	339.12
188.609	340.76
188.842	342.41
189.076	344.78
189.309	346.88
189.542	347.38
189.775	348.83
190.009	351.78
190.242	352.58
190.475	354.05
190.708	355.25
190.941	356.92
191.174	359.07
191.408	359.67
191.641	361.54
191.874	362.36
192.107	364.83
192.34	366.3
192.573	367.14
192.806	369.1
193.039	371.67
193.272	373.81
193.505	375.48
193.738	376.7
193.971	379.25
194.204	381.25
194.437	383.99
194.67	385.54
194.903	388.21
195.136	389.88
195.369	391.72
195.602	393.59
195.835	394.27
196.068	397.01
196.301	398.72
196.533	400.14
196.766	401.65
196.999	403.05
197.232	405.32
197.465	405.87
197.698	408.38
197.93	410.47
198.163	412.72
198.396	415.08
198.629	416.5
198.861	418.99
199.094	421.45
199.327	424.03
199.559	425.21
199.792	427.07
200.025	429.92
200.257	431.81
200.49	434.48
200.723	436.1
200.955	438.3
201.188	439.94
201.42	442.83
201.653	444.59
201.886	445.76
202.118	448.65
202.351	450.47
202.583	453.38
202.816	455.7
203.048	457.38
203.281	460.59
203.513	463.43
203.745	466.54
203.978	468.08
204.21	470.41
204.443	472.85
204.675	474.7
204.907	477.48
205.14	479.9
205.372	481.41
205.605	484.39
205.837	486.76
206.069	489.14
206.302	490.12
206.534	492.74
206.766	494.9
206.998	497.08
207.231	499.85
207.463	501.72
207.695	504.63
207.927	507.94
208.159	509.38
208.392	511.08
208.624	512.23
208.856	515.32
209.088	517.03
209.32	520.21
209.552	521.99
209.784	525.12
210.017	528.1
210.249	529.78
210.481	530.78
210.713	532.98
210.945	535.18
211.177	537.05
211.409	538.28
211.641	541.03
211.873	542.83
212.105	545.78
212.337	546.45
212.569	547.45
212.801	549.05
213.033	551.63
213.264	553.32
213.496	555.47
213.728	558.39
213.96	561.14
214.192	562.38
214.424	564.52
214.656	566.61
214.887	569.96
215.119	573.5
215.351	574.65
215.583	577.72
215.815	580.67
216.046	582.76
216.278	584.81
216.51	586.01
216.741	588.07
216.973	589.79
217.205	590.83
217.436	591.3
217.668	591.78
217.9	593.25
218.131	592.16
218.363	592.12
218.595	593.18
218.826	595.18
219.058	597.87
219.289	598.76
219.521	598.88
219.752	600.1
219.984	601.54
220.215	602.16
220.447	603.45
220.678	605.76
220.91	606.72
221.141	608.21
221.373	608.59
221.604	609.63
221.836	610.85
222.067	612.83
222.298	614.21
222.53	616.47
222.761	618.74
222.993	621.25
223.224	622.88
223.455	625.08
223.686	624.27
223.918	624.83
224.149	624.78
224.38	625.74
224.612	624.41
224.843	624.99
225.074	625.43
225.305	626.25
225.536	625.74
225.768	625.74
225.999	626.61
226.23	628.52
226.461	628.38
226.692	629.18
226.923	629.98
227.155	633.87
227.386	635.16
227.617	635.5
227.848	636.32
228.079	637.58
228.31	637.94
228.541	637.61
228.772	636.76
229.003	636.58
229.234	637.43
229.465	637.14
229.696	635.99
229.927	636.52
230.158	636.07
230.389	634.34
230.62	633.7
230.85	633.79
231.081	633.87
231.312	635.32
231.543	635.34
231.774	635.19
232.005	635.9
232.236	635.81
232.466	635.27
232.697	635.16
232.928	635.5
233.159	636.88
233.389	637.83
233.62	637.48
233.851	637.03
234.082	637.19
234.312	637.47
234.543	637.43
234.774	635.74
235.004	636.12
235.235	636.12
235.466	636.41
235.696	635.01
235.927	632.72
236.157	633.3
236.388	633.27
236.618	635.18
236.849	634.68
237.08	634.76
237.31	636.3
237.541	633.85
237.771	633.74
238.002	634.34
238.232	632.87
238.463	633.16
238.693	631.99
238.923	632.07
239.154	630.07
239.384	630.14
239.615	630.03
239.845	628.74
240.075	630.07
240.306	628.79
240.536	627.3
240.766	627.67
240.997	628.61
241.227	629.78
241.457	628.59
241.687	629.07
241.918	628.9
242.148	627.25
242.378	627.99
242.608	627.19
242.839	627.85
243.069	627.92
243.299	626.58
243.529	626.45
243.759	624.81
243.989	623.99
244.22	622.19
244.45	621.21
244.68	620.65
244.91	619.81
245.14	618.99
245.37	618.07
245.6	616.98
245.83	617.87
246.06	615.87
246.29	616.36
246.52	616.81
246.75	617.01
246.98	615.74
247.21	614.98
247.44	613.48
247.67	612.83
247.9	612.79
248.13	611.98
248.359	610.98
248.589	610.39
248.819	608.52
249.049	607.78
249.279	608.1
249.509	608.61
249.738	608.58
249.968	609.27
250.198	610.52
250.428	609.45
250.657	609.81
250.887	609.34
251.117	609.3
251.347	608.74
251.576	608.32
251.806	607.07
252.036	606.03
252.265	605.34
252.495	604.39
252.725	602.99
252.954	602.41
253.184	601.07
253.413	600.23
253.643	600.08
253.873	600.03
254.102	600.18
254.332	599.81
254.561	599.19
254.791	599.14
255.02	598.74
255.25	598.45
255.479	597.34
255.708	597.79
255.938	596.47
256.167	595.3
256.397	595.72
256.626	593.96
256.856	592.7
257.085	591.23
257.314	590.68
257.544	590.01
257.773	589.43
258.002	589.21
258.232	587.1
258.461	587.38
258.69	587.47
258.919	586.5
259.149	584.88
259.378	584.76
259.607	584.3
259.836	583.79
260.065	582.38
260.295	581.59
260.524	580.88
260.753	580.45
260.982	580.92
261.211	580.18
261.44	579.34
261.669	579.78
261.899	578.98
262.128	579.03
262.357	578.47
262.586	577.92
262.815	576.19
263.044	575.52
263.273	578.16
263.502	577.03
263.731	575.45
263.96	574.43
264.189	574.14
264.418	573.18
264.646	570.87
264.875	569.39
265.104	568.76
265.333	567.81
265.562	565.83
265.791	561.34
266.02	559.1
266.249	557.65
266.477	556.07
266.706	555.19
266.935	554.12
267.164	554.07
267.393	553.63
267.621	553.45
267.85	552.96
268.079	553.65
268.307	553.18
268.536	552.94
268.765	552.83
268.993	553.05
269.222	552.99
269.451	551.9
269.679	552.21
269.908	552.05
270.137	552.07
270.365	552.18
270.594	552.92
270.822	554.54
271.051	555.68
271.279	555.81
271.508	556.59
271.736	556.76
271.965	558.41
272.193	558.72
272.422	559.1
272.65	558.38
272.879	559.28
273.107	558.63
273.336	556.98
273.564	554.7
273.792	554.23
274.021	552.88
274.249	550.65
274.477	548.1
274.706	546.85
274.934	545.05
275.162	544.76
275.391	542.25
275.619	540.32
275.847	539.63
276.075	539.07
276.304	539.3
276.532	537.45
276.76	537.05
276.988	536.74
277.216	535.47
277.445	534.72
277.673	532.63
277.901	533.38
278.129	532.68
278.357	531.05
278.585	530.61
278.813	529.07
279.041	528.25
279.269	527.54
279.497	527.58
279.725	526.96
279.954	526.1
280.182	525.67
280.41	524.21
280.637	524.38
280.865	524.65
281.093	524.54
281.321	523.39
281.549	523.7
281.777	525.12
282.005	524.25
282.233	524.54
282.461	524.41
282.689	525.03
282.916	524.92
283.144	524.83
283.372	525.34
283.6	524.12
283.828	522.65
284.055	521.54
284.283	519.14
284.511	519.05
284.739	516.99
284.966	516.28
285.194	514.96
285.422	513.94
285.649	512.59
285.877	510.56
286.105	511.48
286.332	513.03
286.56	512.98
286.788	513.56
287.015	512.65
287.243	513.03
287.47	511.81
287.698	510.39
287.925	510.36
288.153	509.52
288.381	510.41
288.608	509.36
288.836	507.21
289.063	506.14
289.29	503.67
289.518	503.38
289.745	502.88
289.973	503.23
290.2	504.65
290.428	502.36
290.655	501.85
290.882	500.01
291.11	499.3
291.337	499.39
291.564	498.76
291.792	498.7
292.019	498.59
292.246	497.92
292.473	497.1
292.701	496.03
292.928	495.68
293.155	495.39
293.382	494.12
293.61	493.76
293.837	492.79
294.064	492.5
294.291	491.61
294.518	489.85
294.745	489.3
294.972	489.14
295.2	488.27
295.427	489.32
295.654	489.01
295.881	489.48
296.108	487.94
296.335	488.74
296.562	488.94
296.789	488.76
297.016	488.56
297.243	487.99
297.47	488.01
297.697	487.05
297.924	485.34
298.151	483.65
298.378	483.47
298.604	483.83
298.831	482.81
299.058	482.88
299.285	482.78
299.512	482.9
299.739	482.87
299.966	481.81
300.192	480.58
300.419	481.12
300.646	481.47
300.873	480.5
301.099	479.98
301.326	479.96
301.553	477.87
301.78	477.38
302.006	476.99
302.233	476.19
302.46	475.25
302.686	475.74
302.913	474.52
303.14	474.01
303.366	474.05
303.593	473.38
303.819	472.36
304.046	471.47
304.272	471.96
304.499	470.56
304.725	470.94
304.952	469.54
305.179	469.3
305.405	469.58
305.631	469.21
305.858	468.68
306.084	468.65
306.311	468.63
306.537	469.63
306.764	467.67
306.99	467.27
307.216	466.88
307.443	467.16
307.669	466.59
307.895	465.32
308.122	465.45
308.348	464.61
308.574	463.05
308.801	463.45
309.027	463.59
309.253	463.87
309.479	464.65
309.706	463.96
309.932	463.21
310.158	464.03
310.384	463.85
310.61	463.94
310.837	463.68
311.063	465.27
311.289	463.92
311.515	462.99
311.741	463.14
311.967	461.99
312.193	462.3
312.419	463.18
312.645	461.59
312.871	461.21
313.097	459.98
313.323	460.43
313.549	460.7
313.775	461.67
314.001	461.59
314.227	461.98
314.453	462.79
314.679	461.79
314.905	462.81
315.131	463.25
315.357	464.07
315.583	464.27
315.809	464.92
316.034	464.78
316.26	463.94
316.486	465.28
316.712	465.58
316.938	465.61
317.163	466.14
317.389	466.81
317.615	467.76
317.841	468.18
318.066	469.99
318.292	470.81
318.518	470.7
318.743	471.27
318.969	471.96
319.195	472.52
319.42	473.59
319.646	474.1
319.872	473.92
320.097	474.36
320.323	475.79
320.548	475.65
320.774	476.7
320.999	477.96
321.225	479.7
321.45	480.92
321.676	482.27
321.901	484.39
322.127	485.74
322.352	487.45
322.578	488.98
322.803	489.79
323.029	491.87
323.254	493.48
323.479	495.67
323.705	496.47
323.93	496.83
324.155	498.25
324.381	498.52
324.606	501.61
324.831	502.81
325.057	504.81
325.282	506.87
325.507	508.87
325.732	510.05
325.958	511.05
326.183	514.39
326.408	516.92
326.633	520.43
326.858	523.68
327.084	525.83
327.309	529.28
327.534	532.59
327.759	535.96
327.984	539.25
328.209	542.14
328.434	546.61
328.659	551.01
328.884	554.98
329.109	557.01
329.334	559.88
329.559	563.54
329.784	566.94
330.009	571.61
330.234	575.08
330.459	577.48
330.684	581.61
330.909	584.41
331.134	587.14
331.359	590.94
331.584	595.18
331.809	600.03
332.034	602.96
332.259	607.19
332.483	610.36
332.708	614.01
332.933	619.85
333.158	624.65
333.383	630.61
333.607	635.58
333.832	639.1
334.057	643.12
334.282	648.61
334.506	654.63
334.731	659.88
334.956	664.54
335.18	670.96
335.405	675.96
335.63	682.79
335.854	687.65
336.079	692.34
336.303	698.07
336.528	705.19
336.753	708.43
336.977	714.79
337.202	720.83
337.426	727.41
337.651	734.67
337.875	740.1
338.1	746.27
338.324	753.23
338.549	761.18
338.773	770.34
338.997	777.92
339.222	787.36
339.446	794.12
339.671	801.39
339.895	809.3
340.119	817.25
340.344	825.78
340.568	830.98
340.792	838.18
341.017	845.5
341.241	851.48
341.465	859.59
341.689	866.39
341.914	874.3
342.138	882.36
342.362	890.18
342.586	896.19
342.811	904.36
343.035	914.5
343.259	922.1
343.483	931.32
343.707	941.03
343.931	949.61
344.155	959.67
344.38	970.27
344.604	981.65
344.828	990.23
345.052	1000.05
345.276	1010.88
345.5	1020.48
345.724	1031.59
345.948	1040.01
346.172	1049.59
346.396	1058.99
346.62	1070.25
346.844	1079.92
347.068	1087.72
347.292	1098.7
347.515	1111.1
347.739	1121.48
347.963	1132.3
348.187	1142.76
348.411	1153.28
348.635	1164.48
348.859	1173.99
349.082	1183.1
349.306	1192.48
349.53	1204.12
349.754	1214.83
349.977	1223.63
350.201	1234.87
350.425	1244.52
350.649	1255.56
350.872	1266.85
351.096	1276.9
351.32	1290.23
351.543	1302.01
351.767	1314.39
351.99	1325.48
352.214	1337.7
352.438	1349.03
352.661	1359.5
352.885	1370.54
353.108	1381.81
353.332	1394.41
353.555	1406.54
353.779	1417.98
354.002	1429.48
354.226	1441.25
354.449	1452.92
354.673	1462.83
354.896	1475.61
355.12	1487.96
355.343	1502.05
355.566	1513.1
355.79	1525.41
356.013	1540.16
356.237	1551.48
356.46	1563.81
356.683	1576.79
356.907	1590.08
357.13	1605.81
357.353	1617.05
357.576	1628.58
357.8	1636.92
358.023	1648.94
358.246	1660.92
358.469	1672.98
358.693	1685.5
358.916	1700.05
359.139	1712.88
359.362	1725.72
359.585	1737.12
359.808	1751.18
360.031	1762.5
360.255	1778.52
360.478	1793.54
360.701	1807.63
360.924	1819.87
361.147	1833.21
361.37	1845.99
361.593	1859.79
361.816	1871.27
362.039	1884.61
362.262	1897.99
362.485	1915.07
362.708	1927.78
362.931	1940.74
363.154	1954.63
363.377	1967.7
363.599	1981.9
363.822	1996.5
364.045	2008.74
364.268	2025.07
364.491	2038.9
364.714	2053.32
364.936	2066.47
365.159	2082.38
365.382	2096.63
365.605	2110.25
365.828	2130.18
366.05	2144.9
366.273	2157.59
366.496	2176.47
366.718	2190.96
366.941	2208.7
367.164	2225.88
367.386	2243.98
367.609	2262.08
367.832	2280.05
368.054	2297.72
368.277	2309.47
368.5	2326.76
368.722	2343.5
368.945	2356.48
369.167	2372.74
369.39	2388.61
369.612	2404.32
369.835	2418.81
370.057	2433.18
370.28	2449.52
370.502	2466.07
370.725	2483.56
370.947	2501.05
371.169	2520.12
371.392	2538.78
371.614	2556.18
371.837	2573.58
372.059	2591.01
372.281	2607.52
372.504	2625.56
372.726	2643.08
372.948	2660.94
373.171	2678.34
373.393	2695.61
373.615	2711.19
373.837	2726.87
374.06	2744.12
374.282	2761.87
374.504	2780.14
374.726	2799.01
374.948	2818.01
375.17	2837.78
375.393	2858.25
375.615	2875.96
375.837	2896.38
376.059	2914.7
376.281	2935.56
376.503	2956.28
376.725	2974.45
376.947	2993.88
377.169	3015.87
377.391	3036.65
377.613	3058.28
377.835	3077.67
378.057	3100.7
378.279	3120.32
378.501	3144.07
378.723	3165.38
378.945	3185.03
379.167	3204.54
379.389	3227.67
379.611	3249.9
379.833	3272.01
380.054	3292.83
380.276	3318.59
380.498	3340.99
380.72	3367.28
380.942	3391.87
381.163	3417.28
381.385	3444.54
381.607	3473.61
381.829	3499.03
382.05	3523.56
382.272	3548.83
382.494	3573.68
382.716	3596.54
382.937	3620.39
383.159	3647.05
383.381	3674.67
383.602	3700.83
383.824	3726.25
384.045	3752.16
384.267	3780.54
384.488	3805.74
384.71	3832.76
384.932	3861.19
385.153	3886.87
385.375	3918.83
385.596	3943.12
385.818	3969.94
386.039	3995.65
386.261	4024.68
386.482	4053.36
386.703	4079.58
386.925	4107.72
387.146	4138.92
387.368	4169.54
387.589	4201.56
387.81	4228.48
388.032	4255.96
388.253	4284.19
388.474	4316.45
388.696	4345.27
388.917	4372.12
389.138	4399.43
389.359	4432.05
389.581	4460.34
389.802	4489.5
390.023	4518.43
390.244	4546.47
390.465	4581.25
390.687	4610.01
390.908	4638.87
391.129	4669.94
391.35	4702.36
391.571	4733.45
391.792	4762.9
392.013	4791.96
392.234	4823.05
392.455	4852.83
392.677	4887.21
392.898	4915.03
393.119	4948.58
393.34	4979.59
393.561	5009.01
393.782	5040.39
394.003	5075.54
394.223	5112.63
394.444	5144.72
394.665	5175.28
394.886	5210.56
395.107	5244.25
395.328	5280.19
395.549	5317.1
395.77	5357.23
395.99	5396.23
396.211	5434.23
396.432	5465.68
396.653	5495.78
396.874	5535.43
397.094	5573.88
397.315	5609.54
397.536	5643.72
397.757	5677.85
397.977	5710.67
398.198	5743.87
398.419	5778.45
398.639	5812.25
398.86	5848.21
399.081	5883.3
399.301	5916.18
399.522	5951.18
399.742	5984.21
399.963	6018.59
400.184	6056.78
400.404	6090.23
400.625	6119.94
400.845	6152.48
401.066	6183.72
401.286	6218.23
401.507	6252.25
401.727	6287.85
401.948	6322.48
402.168	6358.32
402.388	6394.38
402.609	6427.81
402.829	6463.9
403.05	6500.19
403.27	6537.21
403.49	6575.65
403.711	6612.63
403.931	6650.87
404.151	6683.96
404.372	6715.43
404.592	6752.07
404.812	6786.25
405.032	6820.48
405.253	6854.74
405.473	6890.12
405.693	6923.79
405.913	6959.01
406.133	6990.88
406.353	7029.85
406.574	7068.16
406.794	7105.07
407.014	7138.36
407.234	7174.05
407.454	7207.87
407.674	7246.67
407.894	7286.16
408.114	7328.45
408.334	7362.78
408.554	7406.14
408.774	7442.25
408.994	7480.23
409.214	7516.14
409.434	7556.67
409.654	7596.19
409.874	7635.56
410.094	7675.52
410.314	7714.25
410.534	7749.36
410.754	7796.43
410.974	7834.43
411.193	7872.01
411.413	7907.74
411.633	7949.16
411.853	7985.56
412.073	8023.08
412.292	8060.88
412.512	8100.36
412.732	8139.88
412.952	8176.7
413.171	8214.1
413.391	8252.98
413.611	8292.07
413.831	8339.14
414.05	8381.96
414.27	8423.19
414.489	8465.58
414.709	8509.43
414.929	8551.7
415.148	8593.56
415.368	8638.18
415.587	8679.99
415.807	8725.58
416.026	8765.72
416.246	8806.99
416.465	8848.63
416.685	8889.3
416.904	8934.08
417.124	8977.87
417.343	9021.98
417.563	9068.19
417.782	9113.45
418.002	9159.03
418.221	9199.19
418.44	9249.03
418.66	9287.5
418.879	9339.01
419.098	9387.08
419.318	9433.08
419.537	9474.67
419.756	9512.45
419.976	9554.41
420.195	9596.45
420.414	9636.41
420.633	9680.32
420.853	9720.74
421.072	9768.5
421.291	9803.54
421.51	9850.61
421.729	9890.98
421.948	9937.16
422.168	9980.63
422.387	10020.48
422.606	10061.99
422.825	10105.68
423.044	10151.87
423.263	10196.08
423.482	10238.1
423.701	10285.07
423.92	10324.99
424.139	10370.03
424.358	10413.99
424.577	10461.38
424.796	10504.47
425.015	10553.5
425.234	10597.72
425.453	10641.61
425.672	10687.65
425.891	10734.07
426.11	10778.85
426.328	10826.87
426.547	10873.12
426.766	10923.83
426.985	10970.48
427.204	11020.72
427.422	11066.92
427.641	11117.25
427.86	11162.18
428.079	11207.39
428.297	11253.94
428.516	11301.43
428.735	11352.96
428.954	11404.07
429.172	11448.27
429.391	11503.59
429.61	11550.39
429.828	11598.61
430.047	11644.16
430.265	11694.47
430.484	11743.39
430.703	11790.76
430.921	11839.67
431.14	11878.52
431.358	11922.72
431.577	11968.5
431.795	12012.7
432.014	12061.58
432.232	12111.36
432.451	12160.19
432.669	12207.43
432.887	12255.5
433.106	12303.78
433.324	12345.16
433.543	12393.79
433.761	12441.07
433.979	12491.38
434.198	12532.01
434.416	12584.58
434.634	12629.32
434.853	12677.54
435.071	12726.34
435.289	12772.23
435.507	12814.85
435.726	12862.07
435.944	12907.99
436.162	12957.19
436.38	13005.23
436.598	13044.52
436.817	13084.36
437.035	13130.87
437.253	13177.32
437.471	13227.79
437.689	13272.28
437.907	13326.41
438.125	13377.76
438.343	13425.08
438.561	13471.48
438.78	13515.01
438.998	13573.87
439.216	13625.43
439.434	13675.07
439.652	13723.9
439.869	13766.9
440.087	13823.65
440.305	13868.68
440.523	13918.39
440.741	13976.94
440.959	14027.76
441.177	14082.94
441.395	14135.3
441.613	14181.67
441.831	14227.76
442.048	14274.39
442.266	14324.21
442.484	14366.16
442.702	14411.03
442.919	14459.12
443.137	14506.94
443.355	14554.38
443.573	14600.48
443.79	14646.07
444.008	14699.01
444.226	14748.07
444.443	14793.48
444.661	14841.78
444.879	14891.25
445.096	14943.88
445.314	14989.05
445.532	15032.61
445.749	15073.38
445.967	15116.98
446.184	15161.96
446.402	15206.87
446.619	15256.27
446.837	15309.47
447.054	15355.05
447.272	15402.08
447.489	15451.92
447.707	15503.96
447.924	15546.68
448.141	15600.9
448.359	15652.21
448.576	15704.68
448.794	15751.96
449.011	15803.78
449.228	15847.56
449.446	15893.9
449.663	15939.28
449.88	15990.12
450.098	16037.07
450.315	16091.99
450.532	16136.36
450.749	16186.78
450.967	16235.12
451.184	16285.99
451.401	16328.01
451.618	16375.21
451.835	16432.58
452.052	16484.56
452.27	16526.85
452.487	16578.96
452.704	16616.72
452.921	16667.28
453.138	16713.5
453.355	16760.85
453.572	16807.47
453.789	16865.9
454.006	16918.03
454.223	16959.94
454.44	17008.25
