Data from test1_MAYP1115451__52__10-14-55-296.txt Node

Date: Wed Jun 12 10:14:55 MDT 2024
User: Modes Lab
Spectrometer: MAYP111545
Trigger mode: 0
Integration Time (sec): 8.000000E-3
Scans to average: 5
Electric dark correction enabled: true
Nonlinearity correction enabled: false
Boxcar width: 5
XAxis mode: Wavelengths
Number of Pixels in Spectrum: 2068
>>>>>Begin Spectral Data<<<<<
165.214	162.63
165.449	162.73
165.683	172.13
165.918	182
166.152	189.39
166.387	195.1
166.621	127.95
166.856	166.59
167.09	185.93
167.325	209.77
167.559	226.5
167.794	241.02
168.028	248.93
168.263	249.92
168.497	248.35
168.732	248.79
168.966	249.22
169.2	250.1
169.435	251.55
169.669	252.21
169.903	253.04
170.138	254.04
170.372	255.12
170.606	256.55
170.841	258.28
171.075	260.92
171.309	261.97
171.544	263.21
171.778	265.5
172.012	266.82
172.246	269.08
172.48	271.72
172.715	273.9
172.949	275.28
173.183	276.59
173.417	278.42
173.651	279.61
173.885	281.61
174.119	282.75
174.354	283.22
174.588	284.46
174.822	284.81
175.056	284.28
175.29	285.06
175.524	285.12
175.758	285.19
175.992	285.86
176.226	285.75
176.46	285.13
176.694	286.73
176.928	286.99
177.162	286.84
177.396	287.46
177.63	288.86
177.864	289.12
178.097	290.7
178.331	291.48
178.565	291.88
178.799	293.19
179.033	293.82
179.267	293.28
179.5	294.21
179.734	295.42
179.968	295.7
180.202	295.9
180.436	297.62
180.669	298.5
180.903	300.12
181.137	300.5
181.371	301.59
181.604	302.5
181.838	304.04
182.072	305.72
182.305	307.02
182.539	308.28
182.772	310.39
183.006	310.75
183.24	311.66
183.473	314.3
183.707	315.82
183.94	316.93
184.174	318.28
184.408	319.61
184.641	320.64
184.875	320.61
185.108	322.26
185.342	323.17
185.575	324.59
185.808	326.35
186.042	325.08
186.275	326.84
186.509	326.75
186.742	328.92
186.976	330.15
187.209	330.57
187.442	333.52
187.676	335.22
187.909	335.52
188.142	336.41
188.376	337.08
188.609	339.12
188.842	339.32
189.076	342.02
189.309	342.48
189.542	343.32
189.775	345.84
190.009	347.17
190.242	349.04
190.475	352.59
190.708	354.3
190.941	357.19
191.174	359.3
191.408	361.93
191.641	363.52
191.874	365.59
192.107	368.52
192.34	370.41
192.573	371.82
192.806	373.19
193.039	373.26
193.272	375.32
193.505	375.81
193.738	377.93
193.971	379.33
194.204	380.53
194.437	382.33
194.67	383.86
194.903	384.44
195.136	386.26
195.369	389.04
195.602	392.44
195.835	394.97
196.068	398.46
196.301	400.28
196.533	402.28
196.766	405.21
196.999	407.99
197.232	409.84
197.465	412.41
197.698	414.15
197.93	415.33
198.163	417.7
198.396	419.41
198.629	420.73
198.861	422.59
199.094	424.72
199.327	427.3
199.559	428.37
199.792	430.39
200.025	432.19
200.257	434.79
200.49	436.37
200.723	437.44
200.955	439.46
201.188	442.22
201.42	444.5
201.653	446.04
201.886	448.9
202.118	452.19
202.351	454.7
202.583	458.01
202.816	460.52
203.048	463.59
203.281	465.72
203.513	468.7
203.745	470.42
203.978	472.28
204.21	475.52
204.443	476.81
204.675	477.84
204.907	480.04
205.14	481.79
205.372	484.13
205.605	486.33
205.837	488.57
206.069	490.22
206.302	491.02
206.534	493.22
206.766	495.13
206.998	495.77
207.231	498.92
207.463	500.95
207.695	503.39
207.927	504.95
208.159	506.06
208.392	507.55
208.624	510.12
208.856	514.17
209.088	516.5
209.32	518.93
209.552	522.22
209.784	524.75
210.017	527.32
210.249	528.82
210.481	531.17
210.713	534.13
210.945	537.32
211.177	538.57
211.409	539.75
211.641	540.68
211.873	542.53
212.105	544.82
212.337	545.57
212.569	547.35
212.801	550.15
213.033	552.93
213.264	555.53
213.496	557.01
213.728	560.48
213.96	562.57
214.192	564.9
214.424	567.01
214.656	569.12
214.887	572.72
215.119	574.19
215.351	575.73
215.583	577.08
215.815	577.97
216.046	579.68
216.278	580.02
216.51	581.5
216.741	584.28
216.973	587.12
217.205	588.48
217.436	589.46
217.668	591.62
217.9	592.37
218.131	593.77
218.363	595.44
218.595	596.79
218.826	599.57
219.058	602.64
219.289	602.66
219.521	603.62
219.752	604.75
219.984	605.08
220.215	606.75
220.447	608.7
220.678	609.01
220.91	609.62
221.141	611.13
221.373	610.9
221.604	611.68
221.836	613.39
222.067	614.52
222.298	616.79
222.53	618.21
222.761	618.62
222.993	618.95
223.224	620.39
223.455	621.88
223.686	623.3
223.918	623.48
224.149	623.12
224.38	624.17
224.612	624.84
224.843	624.46
225.074	624.52
225.305	624.35
225.536	625.15
225.768	627.04
225.999	626.52
226.23	626.44
226.461	627.68
226.692	628.66
226.923	629.55
227.155	630.39
227.386	630.9
227.617	632.48
227.848	633.55
228.079	636.01
228.31	636.37
228.541	638.66
228.772	639.06
229.003	639.72
229.234	640.59
229.465	640.19
229.696	639.21
229.927	638.92
230.158	638.44
230.389	638.08
230.62	637.41
230.85	637.62
231.081	636.86
231.312	637.99
231.543	637.84
231.774	637.95
232.005	638.62
232.236	638.62
232.466	638.99
232.697	638.95
232.928	638.68
233.159	636.46
233.389	634.55
233.62	634.5
233.851	633.95
234.082	632.95
234.312	631.66
234.543	632.22
234.774	631.35
235.004	631.48
235.235	632.13
235.466	632.12
235.696	633.5
235.927	634.79
236.157	633.82
236.388	633.3
236.618	634.92
236.849	635.13
237.08	635.24
237.31	636.15
237.541	635.22
237.771	634.66
238.002	635.24
238.232	634.82
238.463	634.35
238.693	634.9
238.923	634.9
239.154	633.52
239.384	634.22
239.615	632.17
239.845	631.13
240.075	631.79
240.306	630.64
240.536	630.64
240.766	630.68
240.997	630.02
241.227	630.72
241.457	629.92
241.687	630.28
241.918	629.06
242.148	629.04
242.378	629.08
242.608	628.33
242.839	628.28
243.069	626.26
243.299	625.42
243.529	626.08
243.759	626.13
243.989	627.24
244.22	626.01
244.45	625.73
244.68	625.81
244.91	625.1
245.14	624.9
245.37	624.9
245.6	625.24
245.83	624.21
246.06	621.46
246.29	620.24
246.52	618.46
246.75	617.52
246.98	617.32
247.21	616.01
247.44	616.33
247.67	616.21
247.9	615.44
248.13	613.84
248.359	613.35
248.589	614.3
248.819	612.99
249.049	611.3
249.279	611.15
249.509	609.7
249.738	610.46
249.968	609.68
250.198	608.01
250.428	606.26
250.657	607.1
250.887	606.73
251.117	605.95
251.347	605.84
251.576	605.88
251.806	605.39
252.036	604.5
252.265	603.13
252.495	601.28
252.725	600.86
252.954	602.48
253.184	601.19
253.413	601.68
253.643	601.01
253.873	599.95
254.102	599.75
254.332	600.04
254.561	598.95
254.791	598.7
255.02	598.46
255.25	598.01
255.479	596.22
255.708	594.99
255.938	592.42
256.167	592.73
256.397	592.35
256.626	592.52
256.856	591.57
257.085	591.19
257.314	589.99
257.544	590.22
257.773	589.35
258.002	589.28
258.232	590.5
258.461	590.15
258.69	589.02
258.919	588.19
259.149	587.24
259.378	586.39
259.607	585.88
259.836	584.02
260.065	582.39
260.295	581.7
260.524	581.26
260.753	579.17
260.982	579.44
261.211	578.61
261.44	577.86
261.669	576.86
261.899	575.1
262.128	575.15
262.357	575.39
262.586	575.32
262.815	573.9
263.044	572.06
263.273	574.55
263.502	573.46
263.731	571.82
263.96	570.37
264.189	568.5
264.418	568.84
264.646	567.12
264.875	565.57
265.104	564.55
265.333	564.22
265.562	564.3
265.791	559.99
266.02	559.06
266.249	559.04
266.477	558.52
266.706	558.01
266.935	555.48
267.164	555.5
267.393	554.72
267.621	554.37
267.85	552.64
268.079	551.82
268.307	551.66
268.536	550.82
268.765	549.84
268.993	550.28
269.222	551.75
269.451	552.35
269.679	552.5
269.908	553.5
270.137	552.5
270.365	554.35
270.594	554.97
270.822	554.95
271.051	555.75
271.279	554.92
271.508	553.95
271.736	553.01
271.965	555.53
272.193	555.73
272.422	555.46
272.65	555.46
272.879	554.37
273.107	554.02
273.336	554.7
273.564	553.66
273.792	554.33
274.021	553.04
274.249	551.06
274.477	547.68
274.706	544.97
274.934	543.59
275.162	541.99
275.391	540.97
275.619	539.35
275.847	536.62
276.075	535.21
276.304	532.68
276.532	531.84
276.76	530.37
276.988	529.22
277.216	529.04
277.445	528.01
277.673	527.35
277.901	527.1
278.129	525.08
278.357	525.42
278.585	524.95
278.813	525.02
279.041	524.62
279.269	524.97
279.497	524.17
279.725	523.73
279.954	523.06
280.182	523.39
280.41	522.08
280.637	521.93
280.865	520.21
281.093	519.57
281.321	519.84
281.549	519.35
281.777	519.02
282.005	519.17
282.233	519.12
282.461	519.13
282.689	518.48
282.916	518.15
283.144	517.88
283.372	517.41
283.6	516.62
283.828	515.1
284.055	515.12
284.283	515.06
284.511	515.64
284.739	514.33
284.966	514.3
285.194	513.41
285.422	513.5
285.649	512.5
285.877	512.77
286.105	514.75
286.332	515.81
286.56	514.77
286.788	513.21
287.015	512.19
287.243	511.33
287.47	511.02
287.698	510.28
287.925	509.7
288.153	509.92
288.381	509.21
288.608	507.42
288.836	505.52
289.063	505.48
289.29	505.26
289.518	505.32
289.745	505.75
289.973	504.79
290.2	503.53
290.428	503.68
290.655	503.33
290.882	502.33
291.11	501.15
291.337	500.88
291.564	499.7
291.792	498.68
292.019	497.52
292.246	496.41
292.473	495.17
292.701	495.12
292.928	493.55
293.155	492.86
293.382	492.08
293.61	491.77
293.837	490.08
294.064	490.06
294.291	490.02
294.518	488.53
294.745	488.72
294.972	488.52
295.2	488.77
295.427	488.82
295.654	488.48
295.881	489.26
296.108	487.39
296.335	489.12
296.562	488.13
296.789	487.86
297.016	488.44
297.243	486.81
297.47	486.66
297.697	486.41
297.924	486.06
298.151	485.41
298.378	484.04
298.604	485.17
298.831	482.9
299.058	482.75
299.285	482.72
299.512	481.35
299.739	481.42
299.966	481.26
300.192	479.19
300.419	478.02
300.646	476.95
300.873	476.79
301.099	475.61
301.326	475.33
301.553	474.73
301.78	474.19
302.006	473.44
302.233	473.19
302.46	471.66
302.686	473.01
302.913	473.5
303.14	473.19
303.366	473.04
303.593	472.48
303.819	472.57
304.046	472.79
304.272	471.53
304.499	472.42
304.725	471.81
304.952	471.35
305.179	471.04
305.405	470.19
305.631	470.42
305.858	470.57
306.084	469.88
306.311	470.37
306.537	468.81
306.764	468.9
306.99	467.97
307.216	468.15
307.443	468.19
307.669	468.06
307.895	467.08
308.122	465.75
308.348	465.19
308.574	465.35
308.801	464.62
309.027	465.5
309.253	465.46
309.479	465.46
309.706	464.81
309.932	464.88
310.158	462.99
310.384	462.84
310.61	462.61
310.837	462.37
311.063	462.17
311.289	460.77
311.515	460.7
311.741	460.5
311.967	459.62
312.193	460.5
312.419	460.53
312.645	460.55
312.871	459.01
313.097	459.5
313.323	459.62
313.549	460.59
313.775	461.22
314.001	461.39
314.227	461.35
314.453	462.06
314.679	461.53
314.905	460.39
315.131	461.46
315.357	463.19
315.583	463.24
315.809	463.04
316.034	463.22
316.26	464.19
316.486	463.99
316.712	464.84
316.938	465.04
317.163	465.21
317.389	466.92
317.615	467.41
317.841	467.82
318.066	468.73
318.292	469.48
318.518	469.66
318.743	469.7
318.969	471.19
319.195	471.26
319.42	472.02
319.646	473.01
319.872	473.55
320.097	474.81
320.323	476.13
320.548	477.28
320.774	478.46
320.999	478.08
321.225	479.66
321.45	480.62
321.676	481.61
321.901	483.99
322.127	484.12
322.352	486.37
322.578	487.57
322.803	488.75
323.029	489.93
323.254	490.73
323.479	493.3
323.705	494.22
323.93	495.92
324.155	498.1
324.381	499.33
324.606	502.39
324.831	503.86
325.057	505.33
325.282	506.77
325.507	508.7
325.732	510.33
325.958	513.42
326.183	515.99
326.408	517.68
326.633	521.26
326.858	523.19
327.084	525.59
327.309	527.3
327.534	530.3
327.759	533.57
327.984	537.42
328.209	540.53
328.434	543.84
328.659	547.61
328.884	551.08
329.109	553.5
329.334	556.3
329.559	559.32
329.784	563.59
330.009	568.02
330.234	572.3
330.459	576.44
330.684	580.75
330.909	584.21
331.134	587.01
331.359	590.79
331.584	594.55
331.809	599.79
332.034	604.17
332.259	608.33
332.483	611.15
332.708	614.99
332.933	618.52
333.158	622.75
333.383	626.73
333.607	632.35
333.832	636.77
334.057	642.62
334.282	647.19
334.506	653.35
334.731	659.21
334.956	665.77
335.18	672.04
335.405	678.26
335.63	684.95
335.854	690.44
336.079	696.61
336.303	703.46
336.528	707.92
336.753	713.22
336.977	718.75
337.202	724.46
337.426	730.62
337.651	736.75
337.875	742.13
338.1	747.72
338.324	754.3
338.549	761.19
338.773	769.28
338.997	776.97
339.222	784.93
339.446	792.61
339.671	800.52
339.895	807.35
340.119	813.77
340.344	821.86
340.568	829.79
340.792	838.22
341.017	843.73
341.241	851.52
341.465	857.61
341.689	865.86
341.914	872.81
342.138	880.55
342.362	888.42
342.586	897.57
342.811	906.61
343.035	915.92
343.259	925.08
343.483	936.9
343.707	943.95
343.931	953.7
344.155	962.7
344.38	973.46
344.604	982.62
344.828	992.01
345.052	1001.79
345.276	1010.44
345.5	1018.99
345.724	1027.81
345.948	1034.68
346.172	1044.7
346.396	1053.92
346.62	1065.06
346.844	1073.3
347.068	1083.72
347.292	1096.04
347.515	1104.42
347.739	1116.64
347.963	1127.33
348.187	1137.73
348.411	1149.73
348.635	1159.42
348.859	1170.86
349.082	1179.35
349.306	1190.28
349.53	1201.21
349.754	1210.61
349.977	1221.46
350.201	1227.66
350.425	1239.01
350.649	1251.28
350.872	1261.7
351.096	1273.46
351.32	1284.33
351.543	1297.68
351.767	1309.13
351.99	1321.13
352.214	1332.92
352.438	1346.53
352.661	1360.39
352.885	1371.02
353.108	1383.28
353.332	1395.84
353.555	1408.72
353.779	1420.75
354.002	1431.82
354.226	1445.32
354.449	1455.08
354.673	1466.55
354.896	1477.99
355.12	1490.64
355.343	1503.08
355.566	1512.7
355.79	1525.35
356.013	1538.06
356.237	1548.5
356.46	1560.08
356.683	1573.55
356.907	1588.68
357.13	1600.77
357.353	1613.68
357.576	1626.84
357.8	1640.64
358.023	1654.01
358.246	1665.77
358.469	1677.21
358.693	1693.46
358.916	1708.72
359.139	1719.99
359.362	1730.84
359.585	1745.55
359.808	1757.61
360.031	1770.88
360.255	1782.92
360.478	1797.5
360.701	1810.73
360.924	1825.64
361.147	1837.66
361.37	1849.37
361.593	1864.19
361.816	1878.17
362.039	1889.19
362.262	1903.61
362.485	1915.82
362.708	1929.95
362.931	1940.9
363.154	1958.1
363.377	1970.79
363.599	1984.7
363.822	1998.28
364.045	2011.24
364.268	2024.68
364.491	2040.79
364.714	2055.9
364.936	2070.53
365.159	2084.86
365.382	2101.77
365.605	2111.95
365.828	2130.5
366.05	2146.88
366.273	2160.93
366.496	2174.66
366.718	2191.84
366.941	2207.5
367.164	2222.35
367.386	2238.19
367.609	2254.39
367.832	2269.9
368.054	2286.1
368.277	2299.19
368.5	2314.66
368.722	2331.64
368.945	2349.24
369.167	2362.33
369.39	2378.53
369.612	2395.08
369.835	2411.55
370.057	2429.64
370.28	2447.21
370.502	2466.64
370.725	2481.02
370.947	2498.01
371.169	2515.88
371.392	2533.1
371.614	2553.52
371.837	2571.44
372.059	2587.15
372.281	2606.04
372.504	2622.93
372.726	2638.42
372.948	2655.02
373.171	2676.77
373.393	2695.15
373.615	2712.26
373.837	2730.72
374.06	2747.48
374.282	2765.13
374.504	2784.64
374.726	2802.7
374.948	2820.7
375.17	2840.24
375.393	2859.75
375.615	2876.68
375.837	2895.35
376.059	2914.33
376.281	2934.08
376.503	2954.81
376.725	2972.52
376.947	2991.3
377.169	3011.13
377.391	3031.95
377.613	3055.64
377.835	3075.21
378.057	3095.77
378.279	3116.79
378.501	3140.62
378.723	3157.32
378.945	3175.68
379.167	3199.52
379.389	3226.28
379.611	3247.64
379.833	3272.46
380.054	3292.95
380.276	3316.66
380.498	3340.9
380.72	3365.42
380.942	3388.66
381.163	3418.99
381.385	3448.28
381.607	3473.44
381.829	3494.9
382.05	3521.66
382.272	3542.37
382.494	3568.61
382.716	3595.37
382.937	3622.19
383.159	3647.12
383.381	3672.88
383.602	3698.12
383.824	3723.84
384.045	3752.15
384.267	3778.88
384.488	3804.42
384.71	3831.22
384.932	3859.44
385.153	3885.22
385.375	3911.64
385.596	3939.81
385.818	3969.39
386.039	3993.64
386.261	4020.35
386.482	4048.92
386.703	4074.35
386.925	4104.17
387.146	4135.64
387.368	4163.13
387.589	4190.84
387.81	4219.19
388.032	4247.62
388.253	4276.1
388.474	4310.48
388.696	4338.53
388.917	4365.88
389.138	4399.99
389.359	4430.33
389.581	4460.52
389.802	4491.73
390.023	4522.7
390.244	4551.44
390.465	4581.46
390.687	4612.39
390.908	4641.82
391.129	4673.33
391.35	4703.99
391.571	4735.75
391.792	4765.52
392.013	4793.46
392.234	4820.46
392.455	4855.46
392.677	4891.68
392.898	4923.08
393.119	4953.62
393.34	4986.44
393.561	5019.61
393.782	5053.62
394.003	5085.48
394.223	5119.61
394.444	5153.55
394.665	5191.01
394.886	5223.12
395.107	5251.33
395.328	5289.82
395.549	5323.61
395.77	5354.72
395.99	5391.75
396.211	5426.46
396.432	5460.59
396.653	5494.26
396.874	5528.13
397.094	5564.15
397.315	5599.39
397.536	5637.86
397.757	5668.35
397.977	5702.59
398.198	5736.22
398.419	5769.13
398.639	5802.61
398.86	5838.3
399.081	5873.13
399.301	5911.19
399.522	5941.04
399.742	5972.59
399.963	6007.7
400.184	6042.42
400.404	6080.33
400.625	6114.44
400.845	6152.92
401.066	6187.99
401.286	6221.28
401.507	6255.7
401.727	6293.04
401.948	6333.1
402.168	6373.61
402.388	6404.57
402.609	6438.73
402.829	6474.3
403.05	6512.5
403.27	6543.66
403.49	6578.48
403.711	6614.28
403.931	6649.41
404.151	6681.15
404.372	6715.79
404.592	6749.39
404.812	6789.95
405.032	6826.77
405.253	6859.66
405.473	6897.15
405.693	6929.28
405.913	6963.1
406.133	6998.04
406.353	7039.24
406.574	7071.66
406.794	7108.32
407.014	7146.01
407.234	7178.19
407.454	7213.72
407.674	7252.79
407.894	7289.82
408.114	7327.06
408.334	7366.68
408.554	7408.15
408.774	7442.22
408.994	7487.04
409.214	7525.22
409.434	7556.64
409.654	7600.06
409.874	7641.68
410.094	7681.17
410.314	7714.37
410.534	7754.15
410.754	7789.46
410.974	7826.32
411.193	7864.52
411.413	7897.82
411.633	7937.93
411.853	7976.99
412.073	8009.21
412.292	8042.7
412.512	8074.82
412.732	8115.46
412.952	8156.5
413.171	8199.62
413.391	8234.28
413.611	8275.39
413.831	8320.28
414.05	8355.59
414.27	8402.48
414.489	8450.97
414.709	8498.73
414.929	8542.73
415.148	8585.97
415.368	8630.62
415.587	8676.35
415.807	8723.06
416.026	8765.66
416.246	8806.5
416.465	8855.17
416.685	8896.02
416.904	8937.99
417.124	8978.39
417.343	9023.06
417.563	9071.08
417.782	9116.32
418.002	9156.77
418.221	9204.24
418.44	9248.82
418.66	9293.75
418.879	9332.73
419.098	9378.24
419.318	9422.88
419.537	9469.3
419.756	9516.01
419.976	9556.01
420.195	9592.52
420.414	9633.93
420.633	9672.62
420.853	9713.17
421.072	9756.48
421.291	9806.19
421.51	9847.01
421.729	9885.24
421.948	9927.66
422.168	9964.92
422.387	10007.1
422.606	10057.81
422.825	10102.41
423.044	10147.82
423.263	10193.88
423.482	10234.35
423.701	10275.32
423.92	10321.06
424.139	10371.04
424.358	10418.15
424.577	10467.24
424.796	10512.44
425.015	10551.64
425.234	10595.42
425.453	10642.12
425.672	10687.52
425.891	10738.42
426.11	10779.77
426.328	10827.39
426.547	10871.9
426.766	10911.66
426.985	10958.24
427.204	11011.01
427.422	11059.13
427.641	11107.75
427.86	11151.64
428.079	11199.5
428.297	11242.37
428.516	11289.79
428.735	11339.42
428.954	11384.13
429.172	11438.97
429.391	11488.7
429.61	11538.59
429.828	11590.08
430.047	11637.88
430.265	11688.21
430.484	11735.79
430.703	11784.26
430.921	11833.13
431.14	11876.95
431.358	11924.1
431.577	11970.68
431.795	12018.57
432.014	12059.17
432.232	12103.37
432.451	12154.79
432.669	12197.28
432.887	12246.68
433.106	12296.15
433.324	12343.04
433.543	12394.93
433.761	12449.3
433.979	12493.28
434.198	12533.59
434.416	12581.64
434.634	12636.12
434.853	12685.48
435.071	12740.32
435.289	12784.66
435.507	12835.42
435.726	12885.21
435.944	12928.95
436.162	12967.75
436.38	13015.59
436.598	13062.21
436.817	13107.52
437.035	13146.79
437.253	13188.37
437.471	13231.42
437.689	13277.9
437.907	13320.55
438.125	13367.93
438.343	13412.37
438.561	13464.5
438.78	13513.52
438.998	13561.75
439.216	13614.92
439.434	13662.9
439.652	13707.41
439.869	13756.26
440.087	13808.52
440.305	13856.86
440.523	13904.72
440.741	13954.86
440.959	14001.93
441.177	14052.79
441.395	14107.06
441.613	14151.22
441.831	14203.68
442.048	14250.53
442.266	14294.19
442.484	14341.61
442.702	14394.95
442.919	14446.22
443.137	14494.92
443.355	14546.22
443.573	14593.22
443.79	14643.17
444.008	14693.41
444.226	14737.61
444.443	14788.68
444.661	14840.52
444.879	14884.06
445.096	14927.35
445.314	14976.55
445.532	15029.19
445.749	15073.59
445.967	15117.13
446.184	15161.84
446.402	15201.13
446.619	15250.59
446.837	15295.46
447.054	15346.3
447.272	15395.81
447.489	15450.08
447.707	15495.21
447.924	15541.73
448.141	15597.32
448.359	15649.61
448.576	15697.79
448.794	15755.86
449.011	15803.3
449.228	15863.41
449.446	15911.68
449.663	15961.68
449.88	16010.41
450.098	16056.41
450.315	16103.22
450.532	16151.97
450.749	16202.46
450.967	16250.42
451.184	16297.02
451.401	16345.32
451.618	16389.95
451.835	16441.22
452.052	16496.15
452.27	16537.42
452.487	16588.81
452.704	16635.37
452.921	16677.73
453.138	16724.21
453.355	16774.1
453.572	16825.7
453.789	16882.39
454.006	16927.04
454.223	16975.26
454.44	17018.17
454.657	17069.28
