Data from test1_MAYP1115451__67__10-15-00-095.txt Node

Date: Wed Jun 12 10:15:00 MDT 2024
User: Modes Lab
Spectrometer: MAYP111545
Trigger mode: 0
Integration Time (sec): 8.000000E-3
Scans to average: 5
Electric dark correction enabled: true
Nonlinearity correction enabled: false
Boxcar width: 5
XAxis mode: Wavelengths
Number of Pixels in Spectrum: 2068
>>>>>Begin Spectral Data<<<<<
165.214	162.9
165.449	163.38
165.683	171.97
165.918	180.93
166.152	187.23
166.387	192.25
166.621	124.45
166.856	162.72
167.09	180.92
167.325	204.76
167.559	220.96
167.794	234.94
168.028	242.58
168.263	244.7
168.497	245.28
168.732	246.36
168.966	247.88
169.2	249.14
169.435	251.14
169.669	252.41
169.903	253.59
170.138	256.54
170.372	258.19
170.606	259.28
170.841	260.08
171.075	261.1
171.309	263.25
171.544	265.16
171.778	266.65
172.012	268.78
172.246	271.01
172.48	272.59
172.715	273.67
172.949	275.43
173.183	277.76
173.417	279.85
173.651	281.67
173.885	281.59
174.119	282.05
174.354	283.25
174.588	282.67
174.822	283.05
175.056	282.78
175.29	282.03
175.524	281.81
175.758	280.47
175.992	280.87
176.226	280.85
176.46	281.58
176.694	282.12
176.928	283.3
177.162	285.65
177.396	286.28
177.63	288.12
177.864	289.74
178.097	290.23
178.331	292.45
178.565	292.41
178.799	293.01
179.033	293.85
179.267	294.23
179.5	294.78
179.734	294.56
179.968	296.34
180.202	296.01
180.436	296.88
180.669	298.85
180.903	299.85
181.137	301.56
181.371	302.01
181.604	303.07
181.838	304.74
182.072	305.52
182.305	307.07
182.539	306.88
182.772	308.58
183.006	309.47
183.24	309.63
183.473	313.39
183.707	314.99
183.94	316.9
184.174	317.85
184.408	319.01
184.641	319.14
184.875	320.08
185.108	321.92
185.342	323.68
185.575	326.01
185.808	327.39
186.042	326.14
186.275	325.7
186.509	326.92
186.742	328.94
186.976	329.45
187.209	331.19
187.442	331.14
187.676	332.87
187.909	332.36
188.142	333.32
188.376	334.76
188.609	336.05
188.842	338.81
189.076	339.5
189.309	340.56
189.542	341.83
189.775	344.18
190.009	348.5
190.242	350.18
190.475	352.56
190.708	354.52
190.941	356.01
191.174	357.65
191.408	358.61
191.641	360.9
191.874	362.67
192.107	365.74
192.34	368.87
192.573	368.14
192.806	368.81
193.039	372.16
193.272	373.48
193.505	375.87
193.738	377.48
193.971	380.9
194.204	382.47
194.437	384.45
194.67	385.45
194.903	385.79
195.136	388.03
195.369	391.03
195.602	391.92
195.835	394.18
196.068	396.08
196.301	397.87
196.533	398.92
196.766	400.43
196.999	403.08
197.232	405.65
197.465	406.39
197.698	408.81
197.93	410.99
198.163	413.25
198.396	416.21
198.629	418.21
198.861	420.54
199.094	422.47
199.327	425.79
199.559	426.78
199.792	428.87
200.025	432.34
200.257	435.63
200.49	436.96
200.723	438.39
200.955	440.05
201.188	443.32
201.42	444.83
201.653	447.61
201.886	449.32
202.118	451.56
202.351	454.08
202.583	456.98
202.816	459.38
203.048	462.12
203.281	464.78
203.513	466.36
203.745	468.78
203.978	472.9
204.21	474.88
204.443	477.1
204.675	479.08
204.907	481.32
205.14	483.08
205.372	483.28
205.605	485.76
205.837	488.05
206.069	490.23
206.302	491.18
206.534	491.61
206.766	493.1
206.998	494.63
207.231	497.58
207.463	499.3
207.695	502.03
207.927	505.08
208.159	507.14
208.392	509.16
208.624	512.56
208.856	515.05
209.088	517.1
209.32	518.92
209.552	522.43
209.784	524.68
210.017	526.41
210.249	527.39
210.481	529.67
210.713	531.94
210.945	534.59
211.177	535.99
211.409	538.07
211.641	540.92
211.873	543.54
212.105	544.87
212.337	547.3
212.569	550.47
212.801	553.05
213.033	555.21
213.264	557.88
213.496	559.54
213.728	561.76
213.96	562.94
214.192	563.85
214.424	565.87
214.656	567.99
214.887	568.41
215.119	571.41
215.351	573.87
215.583	575.9
215.815	576.14
216.046	579.23
216.278	580.05
216.51	582.36
216.741	584.83
216.973	586.61
217.205	587.94
217.436	590.99
217.668	591.47
217.9	591.87
218.131	593.28
218.363	595.81
218.595	595.54
218.826	597.27
219.058	598.32
219.289	598.59
219.521	600.92
219.752	602.47
219.984	602.99
220.215	602.87
220.447	605.54
220.678	606.32
220.91	606.36
221.141	608.38
221.373	609.47
221.604	610.34
221.836	612.59
222.067	612.72
222.298	612.76
222.53	613.18
222.761	613.61
222.993	614.47
223.224	615.87
223.455	618.21
223.686	618.81
223.918	620.08
224.149	621.88
224.38	622.74
224.612	623.43
224.843	625.83
225.074	626.87
225.305	629.07
225.536	627.79
225.768	627.79
225.999	627.28
226.23	628.45
226.461	629.12
226.692	628.23
226.923	628.14
227.155	631.76
227.386	631.76
227.617	632.23
227.848	632.03
228.079	635.23
228.31	635.61
228.541	635.63
228.772	635.87
229.003	634.27
229.234	635.1
229.465	637.14
229.696	634.74
229.927	634.32
230.158	634.56
230.389	634.81
230.62	634.27
230.85	634.52
231.081	634.59
231.312	634.96
231.543	636.39
231.774	637.81
232.005	636.07
232.236	635.99
232.466	636.28
232.697	636.61
232.928	638.3
233.159	637.98
233.389	637.96
233.62	638.18
233.851	637.48
234.082	637.19
234.312	636.72
234.543	636.52
234.774	636.54
235.004	635.81
235.235	636.3
235.466	633.72
235.696	633.9
235.927	634.18
236.157	635.47
236.388	636.76
236.618	637.59
236.849	636.43
237.08	638.32
237.31	637.85
237.541	638.92
237.771	638.32
238.002	639.12
238.232	638.96
238.463	638.28
238.693	637.47
238.923	636.45
239.154	635.08
239.384	633.94
239.615	632.56
239.845	631.59
240.075	631.32
240.306	629.56
240.536	629.21
240.766	628.03
240.997	626.99
241.227	626.63
241.457	624.5
241.687	624.18
241.918	625.56
242.148	624.92
242.378	626.25
242.608	624.38
242.839	624.78
243.069	625.12
243.299	624.5
243.529	626.16
243.759	624.78
243.989	625.74
244.22	625.98
244.45	624.96
244.68	623.41
244.91	621.48
245.14	622.05
245.37	622.36
245.6	620.56
245.83	619.87
246.06	618.08
246.29	618.39
246.52	617.52
246.75	616.65
246.98	616.9
247.21	617.61
247.44	615.68
247.67	614.1
247.9	613.34
248.13	614.21
248.359	614.88
248.589	614.3
248.819	613.59
249.049	612.63
249.279	611.52
249.509	609.87
249.738	608.36
249.968	610.08
250.198	609.96
250.428	609.58
250.657	606.79
250.887	603.21
251.117	602.7
251.347	602.08
251.576	601.05
251.806	600.81
252.036	600.72
252.265	601.28
252.495	599.34
252.725	599.9
252.954	599.58
253.184	600.25
253.413	601.79
253.643	600.76
253.873	599.79
254.102	599.05
254.332	597.92
254.561	598.23
254.791	597.47
255.02	597.27
255.25	596.07
255.479	594.9
255.708	592.98
255.938	592.27
256.167	592.72
256.397	592.5
256.626	592.67
256.856	593.12
257.085	590.56
257.314	590.25
257.544	589.7
257.773	589.52
258.002	589.21
258.232	589.81
258.461	588.54
258.69	586.61
258.919	586.07
259.149	585.81
259.378	584.61
259.607	583.56
259.836	582.74
260.065	581.92
260.295	581.21
260.524	579.18
260.753	577.79
260.982	577.18
261.211	576.23
261.44	575.5
261.669	574.05
261.899	572.68
262.128	572.81
262.357	571.27
262.586	570.78
262.815	568.48
263.044	568.83
263.273	571.36
263.502	570.48
263.731	570.56
263.96	568.48
264.189	568.1
264.418	567.88
264.646	567.38
264.875	566.23
265.104	564.98
265.333	565.76
265.562	565.25
265.791	561.56
266.02	559.92
266.249	559.18
266.477	559.34
266.706	558.76
266.935	558.88
267.164	558.21
267.393	557.88
267.621	557.83
267.85	556.28
268.079	555.18
268.307	554.99
268.536	554.72
268.765	554.05
268.993	553.45
269.222	551.98
269.451	551.28
269.679	550.5
269.908	551.47
270.137	549.56
270.365	548.98
270.594	548.72
270.822	548.45
271.051	548.43
271.279	548.78
271.508	549.81
271.736	551.45
271.965	551.38
272.193	552.58
272.422	551.1
272.65	552.68
272.879	553.65
273.107	553.43
273.336	553.32
273.564	553.5
273.792	551.99
274.021	550.27
274.249	548.61
274.477	547.61
274.706	545.63
274.934	544.54
275.162	542.43
275.391	541.01
275.619	539.52
275.847	538.23
276.075	537.25
276.304	536.94
276.532	534.9
276.76	533.94
276.988	532.27
277.216	531.27
277.445	531.61
277.673	531.7
277.901	531.08
278.129	530.74
278.357	529.94
278.585	529.25
278.813	528.87
279.041	528.7
279.269	528.01
279.497	526.43
279.725	526.41
279.954	525.59
280.182	523.98
280.41	522.43
280.637	522.08
280.865	521.78
281.093	521.36
281.321	519.88
281.549	520.5
281.777	520.23
282.005	521.56
282.233	519.98
282.461	518.81
282.689	518.72
282.916	518.63
283.144	517.83
283.372	516.76
283.6	515.83
283.828	516.01
284.055	515.14
284.283	514.87
284.511	513.48
284.739	512.83
284.966	512.01
285.194	511.38
285.422	510.74
285.649	511.03
285.877	510.61
286.105	510.92
286.332	510.23
286.56	511.03
286.788	510.79
287.015	510.9
287.243	511.78
287.47	511.99
287.698	511.45
287.925	511.78
288.153	510.68
288.381	511.07
288.608	508.65
288.836	507.85
289.063	506.34
289.29	504.79
289.518	504.34
289.745	502.85
289.973	502.32
290.2	502.3
290.428	500.76
290.655	499.39
290.882	498.52
291.11	500.07
291.337	499.23
291.564	498.19
291.792	498.14
292.019	497.76
292.246	497.98
292.473	496.87
292.701	496.23
292.928	496.25
293.155	496.34
293.382	496.18
293.61	494.43
293.837	494.34
294.064	493.98
294.291	493.27
294.518	491.81
294.745	490.65
294.972	490.08
295.2	489.18
295.427	488.72
295.654	487.52
295.881	485.78
296.108	485.32
296.335	484.43
296.562	483.63
296.789	483.36
297.016	482.98
297.243	483.25
297.47	482.9
297.697	483.07
297.924	482.14
298.151	481.59
298.378	481.56
298.604	481.41
298.831	480.25
299.058	479.36
299.285	478.68
299.512	477.99
299.739	476.92
299.966	476.38
300.192	475.48
300.419	475.21
300.646	475.88
300.873	475.61
301.099	475.32
301.326	475.28
301.553	475.21
301.78	475.52
302.006	475.43
302.233	475.21
302.46	474.98
302.686	475.76
302.913	474.59
303.14	473.5
303.366	472.65
303.593	472.1
303.819	472.39
304.046	470.83
304.272	469.56
304.499	469.56
304.725	468.39
304.952	467.92
305.179	465.41
305.405	466.72
305.631	466.05
305.858	466.14
306.084	466.25
306.311	465.76
306.537	465.7
306.764	465.56
306.99	464.63
307.216	465.23
307.443	465.81
307.669	466.25
307.895	464.72
308.122	464.47
308.348	463.59
308.574	462.27
308.801	463.12
309.027	463.99
309.253	464.61
309.479	465.27
309.706	465.48
309.932	464.54
310.158	464.72
310.384	464.92
310.61	465.03
310.837	465.61
311.063	466.14
311.289	464.74
311.515	465.36
311.741	463.63
311.967	463.9
312.193	462.96
312.419	463.03
312.645	461.52
312.871	461.88
313.097	462.74
313.323	463.16
313.549	463.87
313.775	464.05
314.001	463.23
314.227	465.01
314.453	463.7
314.679	464.47
314.905	464.47
315.131	465.88
315.357	465.78
315.583	465.54
315.809	465.36
316.034	465.56
316.26	466.23
316.486	466.7
316.712	467.08
316.938	467.96
317.163	468.47
317.389	469.76
317.615	470.67
317.841	470.99
318.066	471.48
318.292	471.45
318.518	471.58
318.743	471.81
318.969	471.68
319.195	472.56
319.42	472.85
319.646	472.92
319.872	472.74
320.097	473.16
320.323	474.07
320.548	475.25
320.774	476.5
320.999	477.25
321.225	479.74
321.45	481.65
321.676	481.3
321.901	483.05
322.127	485.36
322.352	487.72
322.578	488.27
322.803	490.03
323.029	490.87
323.254	491.32
323.479	492.78
323.705	492.68
323.93	493.47
324.155	495.99
324.381	497.21
324.606	499.38
324.831	501.01
325.057	504.07
325.282	505.72
325.507	508.38
325.732	511.9
325.958	514.61
326.183	517.87
326.408	520.36
326.633	524.65
326.858	528.48
327.084	530.5
327.309	532.54
327.534	535.98
327.759	538.3
327.984	541.9
328.209	543.54
328.434	546.78
328.659	550.47
328.884	554.07
329.109	555.08
329.334	556.39
329.559	559.21
329.784	561.23
330.009	564.47
330.234	567.7
330.459	571.23
330.684	575.34
330.909	578.92
331.134	581.85
331.359	586.38
331.584	589.76
331.809	595.43
332.034	599.39
332.259	605.61
332.483	609.99
332.708	614.48
332.933	618.25
333.158	623.21
333.383	627.87
333.607	633.07
333.832	638.12
334.057	643.01
334.282	647.99
334.506	653.23
334.731	658.47
334.956	663.21
335.18	670.05
335.405	676.47
335.63	683.56
335.854	689.81
336.079	695.3
336.303	700.76
336.528	707.12
336.753	712.72
336.977	719.05
337.202	724.59
337.426	730.12
337.651	736.99
337.875	742.18
338.1	747.65
338.324	751.76
338.549	757.9
338.773	765.45
338.997	772.47
339.222	779.03
339.446	785.43
339.671	792.83
339.895	801.58
340.119	807.72
340.344	814.94
340.568	822.05
340.792	832.63
341.017	841.54
341.241	848.12
341.465	856.1
341.689	865.08
341.914	872.52
342.138	880.23
342.362	888.52
342.586	896.18
342.811	904.61
343.035	914.52
343.259	922.92
343.483	930.76
343.707	940.9
343.931	950.59
344.155	959.65
344.38	971.23
344.604	981.5
344.828	991.43
345.052	1001.32
345.276	1011.32
345.5	1018.63
345.724	1028.1
345.948	1036.18
346.172	1044.45
346.396	1053.78
346.62	1065.3
346.844	1074.54
347.068	1083.59
347.292	1092.58
347.515	1105.12
347.739	1118.03
347.963	1129.63
348.187	1140.48
348.411	1151.85
348.635	1162.32
348.859	1172.98
349.082	1183.12
349.306	1191.92
349.53	1204.19
349.754	1214.67
349.977	1222.87
350.201	1231.85
350.425	1243.28
350.649	1254.59
350.872	1266.74
351.096	1278.47
351.32	1291.58
351.543	1301.88
351.767	1314.3
351.99	1324.9
352.214	1336.72
352.438	1350.19
352.661	1359.87
352.885	1369.9
353.108	1382.39
353.332	1394.83
353.555	1407.36
353.779	1416.3
354.002	1427.07
354.226	1439.14
354.449	1451.81
354.673	1464.41
354.896	1474.27
355.12	1489.1
355.343	1501.52
355.566	1512.72
355.79	1524.61
356.013	1536.79
356.237	1549.78
356.46	1563.03
356.683	1575.63
356.907	1587.3
357.13	1599.98
357.353	1614.18
357.576	1624.16
357.8	1637.88
358.023	1651.81
358.246	1662.9
358.469	1676.23
358.693	1689.85
358.916	1701.85
359.139	1715.25
359.362	1728.03
359.585	1741.23
359.808	1753.96
360.031	1770.27
360.255	1783.98
360.478	1794.56
360.701	1808.38
360.924	1821.72
361.147	1836.67
361.37	1852.25
361.593	1865.43
361.816	1879.79
362.039	1889.54
362.262	1903.23
362.485	1912.61
362.708	1926.08
362.931	1938.94
363.154	1952.23
363.377	1965.94
363.599	1977.63
363.822	1989.25
364.045	2005.01
364.268	2017.9
364.491	2036.67
364.714	2049.7
364.936	2066.01
365.159	2078.92
365.382	2095.36
365.605	2110.34
365.828	2126.58
366.05	2141.3
366.273	2158.25
366.496	2171.38
366.718	2187.94
366.941	2203.99
367.164	2220.63
367.386	2238.01
367.609	2257.23
367.832	2274.52
368.054	2295.88
368.277	2308.96
368.5	2325.19
368.722	2341.1
368.945	2359.25
369.167	2373.65
369.39	2388.25
369.612	2404.54
369.835	2420.25
370.057	2436.79
370.28	2450.34
370.502	2462.65
370.725	2482.45
370.947	2500.12
371.169	2514.65
371.392	2529.21
371.614	2550.07
371.837	2566.78
372.059	2586.27
372.281	2604.63
372.504	2620.65
372.726	2640.65
372.948	2659.78
373.171	2675.23
373.393	2691.16
373.615	2711.78
373.837	2731.39
374.06	2746.43
374.282	2764.72
374.504	2782.81
374.726	2799.19
374.948	2819.08
375.17	2836.27
375.393	2856.03
375.615	2875.58
375.837	2897.48
376.059	2918.54
376.281	2936.94
376.503	2959.39
376.725	2979.9
376.947	3000.27
377.169	3020.72
377.391	3040.03
377.613	3062.25
377.835	3082.79
378.057	3104.39
378.279	3124.9
378.501	3142.61
378.723	3167.81
378.945	3186.88
379.167	3206.98
379.389	3228.56
379.611	3252.79
379.833	3275.58
380.054	3298.14
380.276	3322.41
380.498	3344.78
380.72	3369.34
380.942	3393.65
381.163	3415.12
381.385	3439.23
381.607	3466.81
381.829	3494.14
382.05	3517.39
382.272	3540.39
382.494	3570.59
382.716	3594.87
382.937	3622.1
383.159	3647.36
383.381	3675.21
383.602	3704.03
383.824	3731.08
384.045	3756.52
384.267	3779.19
384.488	3806.81
384.71	3834.94
384.932	3854.39
385.153	3881.47
385.375	3908.94
385.596	3935.19
385.818	3962.39
386.039	3988.21
386.261	4014.7
386.482	4044.23
386.703	4073.21
386.925	4098.9
387.146	4127.18
387.368	4159.12
387.589	4186.43
387.81	4216.63
388.032	4246.32
388.253	4276.01
388.474	4307.14
388.696	4341.27
388.917	4369.39
389.138	4398.52
389.359	4431.61
389.581	4461.07
389.802	4488.81
390.023	4514.94
390.244	4543.47
390.465	4575.85
390.687	4604.07
390.908	4630.27
391.129	4656.76
391.35	4688.85
391.571	4722.08
391.792	4752.39
392.013	4785.74
392.234	4816.87
392.455	4856.16
392.677	4887.47
392.898	4919.54
393.119	4954.81
393.34	4985.94
393.561	5018.5
393.782	5048.21
394.003	5077.56
394.223	5111.76
394.444	5145.38
394.665	5178.88
394.886	5210.34
395.107	5245.68
395.328	5279.07
395.549	5316.27
395.77	5352.67
395.99	5388.58
396.211	5427.87
396.432	5463.21
396.653	5496.3
396.874	5530.85
397.094	5565.58
397.315	5598.67
397.536	5634.5
397.757	5667.63
397.977	5696.87
398.198	5733.47
398.419	5769.61
398.639	5802.98
398.86	5840.07
399.081	5873.65
399.301	5905.05
399.522	5939.54
399.742	5975.52
399.963	6010.52
400.184	6041.81
400.404	6078.58
400.625	6111.39
400.845	6145.59
401.066	6179.41
401.286	6208.27
401.507	6243.78
401.727	6283.39
401.948	6324.03
402.168	6358.85
402.388	6387.52
402.609	6426.9
402.829	6459.38
403.05	6493.92
403.27	6531.68
403.49	6567.98
403.711	6607.7
403.931	6644.74
404.151	6678.67
404.372	6708.78
404.592	6745.27
404.812	6784.72
405.032	6817.38
405.253	6854.74
405.473	6896.65
405.693	6926.47
405.913	6956.14
406.133	6993.45
406.353	7030.21
406.574	7067.08
406.794	7108.83
407.014	7147.56
407.234	7183.76
407.454	7221.98
407.674	7259.65
407.894	7289.54
408.114	7328.5
408.334	7368.08
408.554	7406.25
408.774	7445.3
408.994	7482.56
409.214	7518.08
409.434	7554.39
409.654	7592.61
409.874	7629.14
410.094	7668.85
410.314	7707.34
410.534	7747.85
410.754	7784.78
410.974	7821.68
411.193	7859.88
411.413	7895.92
411.633	7933.96
411.853	7971.63
412.073	8012.9
412.292	8052.98
412.512	8087.83
412.732	8130.1
412.952	8164.72
413.171	8208.12
413.391	8248.21
413.611	8289.08
413.831	8331.72
414.05	8376.52
414.27	8418.18
414.489	8458.92
414.709	8502.88
414.929	8551.05
415.148	8592.94
415.368	8639.68
415.587	8683.25
415.807	8725.03
416.026	8767.87
416.246	8809.92
416.465	8852.63
416.685	8892.32
416.904	8933.36
417.124	8975.85
417.343	9015.63
417.563	9057.19
417.782	9098.34
418.002	9141.94
418.221	9185.14
418.44	9226.56
418.66	9272.41
418.879	9311.96
419.098	9358.1
419.318	9403.5
419.537	9452.58
419.756	9494.74
419.976	9539.59
420.195	9583.87
420.414	9627.54
420.633	9672.01
420.853	9716.94
421.072	9756.92
421.291	9799.96
421.51	9845.34
421.729	9891.67
421.948	9931.58
422.168	9974.08
422.387	10019.01
422.606	10062.19
422.825	10106.79
423.044	10148.98
423.263	10194.63
423.482	10239.56
423.701	10284.1
423.92	10330.68
424.139	10375.56
424.358	10418.78
424.577	10465.25
424.796	10510.85
425.015	10561.48
425.234	10605.08
425.453	10655.25
425.672	10699.78
425.891	10744.78
426.11	10795.47
426.328	10836.32
426.547	10880.05
426.766	10924.9
426.985	10974.65
427.204	11021.81
427.422	11066.36
427.641	11112.07
427.86	11158.88
428.079	11205.98
428.297	11257.3
428.516	11301.08
428.735	11352.18
428.954	11399.9
429.172	11448.36
429.391	11495.72
429.61	11544.61
429.828	11590.16
430.047	11639.01
430.265	11684.88
430.484	11728.25
430.703	11775.7
430.921	11820.45
431.14	11864.76
431.358	11911.68
431.577	11959.58
431.795	12006.18
432.014	12051.58
432.232	12102.32
432.451	12151.32
432.669	12196.43
432.887	12246.65
433.106	12293.47
433.324	12344.74
433.543	12387.99
433.761	12433.34
433.979	12481.3
434.198	12531.27
434.416	12584.1
434.634	12631.7
434.853	12681.79
435.071	12727.81
435.289	12774.65
435.507	12828.01
435.726	12873.58
435.944	12923.56
436.162	12969.7
436.38	13017.28
436.598	13062.5
436.817	13105.9
437.035	13148.92
437.253	13191.76
437.471	13241.45
437.689	13285.85
437.907	13333.36
438.125	13383.85
438.343	13438.28
438.561	13482.41
438.78	13532.47
438.998	13582.23
439.216	13631.23
439.434	13674.39
439.652	13721.01
439.869	13774.48
440.087	13825.52
440.305	13869.78
440.523	13912.34
440.741	13955.81
440.959	14010.5
441.177	14061.92
441.395	14105.5
441.613	14151.14
441.831	14204.1
442.048	14250.39
442.266	14289.98
442.484	14343.52
442.702	14384.99
442.919	14434.03
443.137	14487.96
443.355	14533.32
443.573	14568.7
443.79	14625.87
444.008	14672.98
444.226	14725.07
444.443	14777.78
444.661	14829.16
444.879	14879.81
445.096	14935.16
445.314	14985.65
445.532	15031.41
445.749	15087.61
445.967	15144.1
446.184	15179.12
446.402	15224.27
446.619	15269.52
446.837	15320.39
447.054	15370.32
447.272	15409.58
447.489	15455.63
447.707	15498.36
447.924	15549.59
448.141	15591.94
448.359	15641.19
448.576	15699.88
448.794	15750.39
449.011	15801.23
449.228	15843.61
449.446	15890.79
449.663	15940.43
449.88	15985.14
450.098	16040.96
450.315	16087.81
450.532	16140.32
450.749	16186.98
450.967	16229.25
451.184	16281.5
451.401	16326.39
451.618	16381.47
451.835	16426.83
452.052	16475.83
452.27	16528.68
452.487	16572.88
452.704	16616.99
452.921	16658.52
453.138	16703.99
453.355	16755.45
453.572	16804.03
453.789	16850.56
454.006	16895.08
454.223	16948.9
