Data from test1_MAYP1115451__88__10-15-07-011.txt Node

Date: Wed Jun 12 10:15:07 MDT 2024
User: Modes Lab
Spectrometer: MAYP111545
Trigger mode: 0
Integration Time (sec): 8.000000E-3
Scans to average: 5
Electric dark correction enabled: true
Nonlinearity correction enabled: false
Boxcar width: 5
XAxis mode: Wavelengths
Number of Pixels in Spectrum: 2068
>>>>>Begin Spectral Data<<<<<
165.214	161.6
165.449	161.27
165.683	171.95
165.918	180.39
166.152	186.52
166.387	192.26
166.621	124.21
166.856	162.37
167.09	181.88
167.325	205.14
167.559	222.14
167.794	236.92
168.028	244.86
168.263	245.59
168.497	246.01
168.732	247.46
168.966	248.21
169.2	249.88
169.435	252.15
169.669	251.88
169.903	253.74
170.138	254.88
170.372	256.23
170.606	257.86
170.841	259.1
171.075	260.03
171.309	261.65
171.544	262.9
171.778	264.17
172.012	264.95
172.246	266.88
172.48	268.92
172.715	270.92
172.949	273.63
173.183	275.08
173.417	276.7
173.651	279.32
173.885	280.06
174.119	280.55
174.354	281.23
174.588	282.32
174.822	283.06
175.056	283.32
175.29	283.35
175.524	283.35
175.758	283.75
175.992	284.45
176.226	283.7
176.46	284.32
176.694	286.5
176.928	287.48
177.162	288.45
177.396	289.48
177.63	289.97
177.864	290.9
178.097	290.74
178.331	291.59
178.565	291.57
178.799	292.99
179.033	293.59
179.267	292.7
179.5	293.14
179.734	293.55
179.968	294.05
180.202	295.54
180.436	297.08
180.669	298.19
180.903	298.63
181.137	299.46
181.371	300.95
181.604	302.08
181.838	304.28
182.072	305.79
182.305	306.34
182.539	307.5
182.772	308.32
183.006	309.05
183.24	310.17
183.473	313.52
183.707	315.52
183.94	316.26
184.174	317.06
184.408	317.75
184.641	318.39
184.875	320.28
185.108	322.14
185.342	323.1
185.575	324.61
185.808	325.12
186.042	324.59
186.275	325.77
186.509	325.99
186.742	327.41
186.976	328.23
187.209	329.21
187.442	331.35
187.676	331.61
187.909	332.54
188.142	333.25
188.376	335.01
188.609	336.68
188.842	337.72
189.076	339.57
189.309	341.32
189.542	343.1
189.775	345.77
190.009	347.55
190.242	350.68
190.475	351.95
190.708	354.12
190.941	357.03
191.174	359.08
191.408	360.74
191.641	362.45
191.874	364.12
192.107	367.06
192.34	368.54
192.573	369.7
192.806	371.37
193.039	373.95
193.272	375.92
193.505	376.54
193.738	377.79
193.971	379.06
194.204	381.46
194.437	383.52
194.67	384.32
194.903	385.68
195.136	387.48
195.369	388.75
195.602	391.14
195.835	392.26
196.068	394.63
196.301	396.9
196.533	398.21
196.766	399.79
196.999	402.3
197.232	405.14
197.465	407.74
197.698	409.63
197.93	412.83
198.163	415.75
198.396	418.55
198.629	421.15
198.861	423.57
199.094	427.01
199.327	428.83
199.559	431.06
199.792	432.3
200.025	434.32
200.257	435.59
200.49	437.45
200.723	438.54
200.955	440.26
201.188	441.7
201.42	443.01
201.653	444.55
201.886	447.45
202.118	449.01
202.351	450.88
202.583	453.99
202.816	457.39
203.048	459.45
203.281	460.03
203.513	462.05
203.745	465.55
203.978	468.3
204.21	470.59
204.443	473.35
204.675	475.79
204.907	478.85
205.14	481.3
205.372	483.1
205.605	485.06
205.837	488.46
206.069	491.54
206.302	492.37
206.534	494.17
206.766	496.41
206.998	498.03
207.231	499.74
207.463	502.75
207.695	504.37
207.927	506.92
208.159	509.61
208.392	511.86
208.624	514.48
208.856	517.19
209.088	519.5
209.32	523.17
209.552	524.7
209.784	527.05
210.017	528.59
210.249	530.06
210.481	531.68
210.713	533.21
210.945	535.85
211.177	537.35
211.409	539.54
211.641	541.26
211.873	541.88
212.105	544.9
212.337	547.59
212.569	549.52
212.801	552.03
213.033	554.9
213.264	556.41
213.496	558.17
213.728	559.83
213.96	561.94
214.192	564.77
214.424	566.59
214.656	568.79
214.887	570.5
215.119	571.94
215.351	573.92
215.583	574.66
215.815	576.97
216.046	578.19
216.278	579.65
216.51	579.74
216.741	580.99
216.973	583.7
217.205	584.57
217.436	586.39
217.668	589.63
217.9	590.79
218.131	591.57
218.363	592.99
218.595	595.9
218.826	598.05
219.058	600.65
219.289	602.68
219.521	602.97
219.752	603.65
219.984	603.1
220.215	602.39
220.447	603.17
220.678	605.74
220.91	606.46
221.141	607.9
221.373	608.59
221.604	610.63
221.836	612.03
222.067	613.5
222.298	615.08
222.53	617.34
222.761	618.63
222.993	620.5
223.224	621.46
223.455	622.81
223.686	623.14
223.918	622.79
224.149	622.97
224.38	622.39
224.612	624.03
224.843	625.15
225.074	626.94
225.305	628.43
225.536	627.25
225.768	627.63
225.999	628.06
226.23	628.1
226.461	628.94
226.692	628.86
226.923	629.88
227.155	630.61
227.386	631.75
227.617	630.72
227.848	630.48
228.079	632.15
228.31	632.08
228.541	633.3
228.772	633.99
229.003	635.68
229.234	636.86
229.465	636.52
229.696	636.25
229.927	635.45
230.158	636.21
230.389	636.48
230.62	635.81
230.85	636.66
231.081	635.46
231.312	635.55
231.543	634.88
231.774	634.26
232.005	634.45
232.236	634.46
232.466	634.72
232.697	634.12
232.928	632.5
233.159	633.94
233.389	633.81
233.62	635.65
233.851	635.26
234.082	635.43
234.312	636.75
234.543	637.25
234.774	637.66
235.004	637.45
235.235	637.79
235.466	639.19
235.696	638.92
235.927	638.66
236.157	636.81
236.388	636.03
236.618	637.41
236.849	635.06
237.08	634.92
237.31	632.94
237.541	633.43
237.771	632.35
238.002	632.32
238.232	632.23
238.463	630.83
238.693	630.77
238.923	632.06
239.154	629.74
239.384	629.19
239.615	628.37
239.845	628.45
240.075	627.26
240.306	628.63
240.536	626.75
240.766	626.05
240.997	625.72
241.227	625.55
241.457	625.17
241.687	623.74
241.918	624.48
242.148	625.15
242.378	624.72
242.608	624.17
242.839	623.85
243.069	624.61
243.299	623.66
243.529	625.77
243.759	625.97
243.989	624.81
244.22	625.7
244.45	624.66
244.68	623.34
244.91	624.34
245.14	624.97
245.37	623.55
245.6	623.15
245.83	622.7
246.06	621.75
246.29	620.86
246.52	620.03
246.75	620.15
246.98	621.45
247.21	621.52
247.44	619.34
247.67	617.95
247.9	617.05
248.13	617.21
248.359	617.12
248.589	615.3
248.819	615.32
249.049	614.66
249.279	614.03
249.509	611.81
249.738	609.97
249.968	609.65
250.198	609.14
250.428	608.17
250.657	605.88
250.887	604.54
251.117	604.63
251.347	603.23
251.576	600.95
251.806	600.17
252.036	600.19
252.265	599.9
252.495	600.01
252.725	599.26
252.954	599.1
253.184	597.9
253.413	597.61
253.643	597.9
253.873	597.32
254.102	599.14
254.332	598.7
254.561	597.68
254.791	596.9
255.02	596.59
255.25	596.26
255.479	596.79
255.708	597.7
255.938	597.17
256.167	594.74
256.397	593.85
256.626	593.19
256.856	592.34
257.085	591.52
257.314	591.7
257.544	590.83
257.773	589.21
258.002	588.54
258.232	587.45
258.461	586.37
258.69	586.7
258.919	587.1
259.149	585.92
259.378	585.54
259.607	584.92
259.836	584.28
260.065	582.05
260.295	582.55
260.524	581.97
260.753	580.97
260.982	580.85
261.211	579.94
261.44	579.08
261.669	577.97
261.899	576.55
262.128	575.94
262.357	574.66
262.586	575.06
262.815	573.74
263.044	572.35
263.273	575.19
263.502	574.23
263.731	573.77
263.96	572.61
264.189	571.19
264.418	570.54
264.646	569.68
264.875	569.48
265.104	568.14
265.333	567.41
265.562	565.63
265.791	562.55
266.02	562.03
266.249	560.48
266.477	559.77
266.706	559.48
266.935	558.61
267.164	557.9
267.393	556.95
267.621	557.25
267.85	556.54
268.079	557.57
268.307	556.55
268.536	555.32
268.765	554.34
268.993	553.54
269.222	553.57
269.451	552.85
269.679	553.06
269.908	552.34
270.137	550.92
270.365	551.41
270.594	550.48
270.822	550.88
271.051	550.97
271.279	551.95
271.508	552.59
271.736	554.45
271.965	557.15
272.193	556.61
272.422	557.54
272.65	558.63
272.879	557.63
273.107	557.95
273.336	557.03
273.564	556.74
273.792	554.5
274.021	553.03
274.249	550.01
274.477	547.03
274.706	545.54
274.934	543.75
275.162	542.32
275.391	541.5
275.619	539.72
275.847	537.99
276.075	536.28
276.304	536.37
276.532	535.32
276.76	534.45
276.988	532.37
277.216	533.19
277.445	532.55
277.673	531.83
277.901	531.85
278.129	530.54
278.357	529.75
278.585	531.26
278.813	529.75
279.041	529.32
279.269	529.06
279.497	529.59
279.725	528.5
279.954	528.01
280.182	526.95
280.41	525.54
280.637	525.48
280.865	524.79
281.093	523.32
281.321	523.14
281.549	522.3
281.777	521.55
282.005	522.05
282.233	521.59
282.461	521.19
282.689	520.85
282.916	519.34
283.144	518.85
283.372	518.75
283.6	518.59
283.828	517.92
284.055	518.15
284.283	517.61
284.511	515.45
284.739	514.5
284.966	512.85
285.194	512.66
285.422	511.97
285.649	511.48
285.877	511.15
286.105	509.7
286.332	510.3
286.56	509.23
286.788	508.06
287.015	508.21
287.243	506.85
287.47	507.21
287.698	507.1
287.925	506.85
288.153	505.23
288.381	504.54
288.608	503.17
288.836	502.23
289.063	502.41
289.29	502.57
289.518	502.06
289.745	502.37
289.973	500.94
290.2	499.79
290.428	499.21
290.655	500.01
290.882	499.05
291.11	498.35
291.337	497.7
291.564	496.43
291.792	495.26
292.019	494.85
292.246	494.59
292.473	494.37
292.701	493.23
292.928	493.45
293.155	493.03
293.382	491.86
293.61	491.45
293.837	490.77
294.064	489.7
294.291	490.03
294.518	489.34
294.745	487.7
294.972	487.7
295.2	487.26
295.427	486.57
295.654	485.12
295.881	486.01
296.108	486.61
296.335	485.37
296.562	485.46
296.789	483.7
297.016	483.17
297.243	483.19
297.47	482.59
297.697	481.26
297.924	481.41
298.151	480.88
298.378	479.88
298.604	478.68
298.831	478.86
299.058	478.66
299.285	478.55
299.512	478.23
299.739	478.14
299.966	477.99
300.192	478.72
300.419	478.28
300.646	478.15
300.873	477.06
301.099	476.7
301.326	475.85
301.553	474.19
301.78	474.75
302.006	473.74
302.233	472.9
302.46	470.75
302.686	468.39
302.913	468.59
303.14	467.48
303.366	468.86
303.593	468.5
303.819	468.35
304.046	468.48
304.272	467.19
304.499	466.92
304.725	466.45
304.952	466.75
305.179	468.06
305.405	466.88
305.631	466.5
305.858	465.48
306.084	464.57
306.311	464.79
306.537	465.55
306.764	464.72
306.99	464.72
307.216	465.34
307.443	465.05
307.669	464.32
307.895	464.08
308.122	464.57
308.348	463.97
308.574	462.65
308.801	462.88
309.027	462.23
309.253	462.43
309.479	462.41
309.706	461.61
309.932	461.14
310.158	460.99
310.384	461.05
310.61	461.37
310.837	460.86
311.063	462.41
311.289	461.21
311.515	461.59
311.741	462.28
311.967	461.99
312.193	461.77
312.419	461.75
312.645	462.86
312.871	461.39
313.097	461.06
313.323	460.83
313.549	461.94
313.775	462.17
314.001	461.39
314.227	460.03
314.453	460.28
314.679	460.1
314.905	461.77
315.131	459.97
315.357	460.59
315.583	460.15
315.809	461.46
316.034	461.43
316.26	462.86
316.486	463.75
316.712	464.05
316.938	464.68
317.163	465.99
317.389	465.08
317.615	467.26
317.841	468.25
318.066	468.77
318.292	469.06
318.518	468.43
318.743	468.39
318.969	468.1
319.195	469.97
319.42	470.01
319.646	470.88
319.872	472.43
320.097	473.41
320.323	475.12
320.548	477.57
320.774	478.19
320.999	479.81
321.225	480.08
321.45	481.45
321.676	482.45
321.901	484.12
322.127	484.9
322.352	487.34
322.578	489.43
322.803	490.3
323.029	491.32
323.254	493.5
323.479	495.21
323.705	497.08
323.93	498.52
324.155	500.14
324.381	502.32
324.606	504.05
324.831	505.99
325.057	506.34
325.282	508.68
325.507	510.12
325.732	512.3
325.958	514.48
326.183	517.88
326.408	520.01
326.633	524.59
326.858	525.97
327.084	528.59
327.309	530.83
327.534	534.01
327.759	537.1
327.984	540.06
328.209	542.52
328.434	545.39
328.659	547.32
328.884	551.88
329.109	553.74
329.334	557.08
329.559	560.55
329.784	563.34
330.009	567.77
330.234	569.95
330.459	573.74
330.684	577.61
330.909	581.75
331.134	585.94
331.359	589.37
331.584	592.52
331.809	597.12
332.034	600.08
332.259	603.41
332.483	607.08
332.708	612.01
332.933	616.03
333.158	620.15
333.383	624.94
333.607	629.61
333.832	634.08
334.057	639.21
334.282	644.66
334.506	651.74
334.731	656.66
334.956	662.41
335.18	668.1
335.405	674.28
335.63	679.7
335.854	684.92
336.079	690.57
336.303	696.65
336.528	702.21
336.753	707.59
336.977	712.55
337.202	718.59
337.426	724.14
337.651	730.06
337.875	735.63
338.1	743.28
338.324	750.14
338.549	757.21
338.773	764.81
338.997	771.79
339.222	779.63
339.446	786.95
339.671	796.68
339.895	804.55
340.119	812.48
340.344	820.14
340.568	827.15
340.792	834.1
341.017	840.94
341.241	848.94
341.465	857.97
341.689	864.39
341.914	871.99
342.138	880.06
342.362	889.03
342.586	898.03
342.811	906.86
343.035	915.66
343.259	925.5
343.483	935.85
343.707	943.72
343.931	954.32
344.155	964.15
344.38	973.88
344.604	982.43
344.828	991.28
345.052	1000.95
345.276	1008.57
345.5	1017.52
345.724	1026.3
345.948	1035.7
346.172	1046.14
346.396	1053.74
346.62	1065.61
346.844	1076.99
347.068	1086.5
347.292	1095.08
347.515	1104.75
347.739	1118.48
347.963	1129.55
348.187	1140.19
348.411	1151.01
348.635	1160.48
348.859	1170.52
349.082	1181.12
349.306	1190.77
349.53	1202.66
349.754	1214.57
349.977	1224.7
350.201	1233.3
350.425	1245.79
350.649	1258.63
350.872	1268.26
351.096	1280.68
351.32	1292.19
351.543	1301.25
351.767	1312.23
351.99	1322.68
352.214	1335.15
352.438	1345.59
352.661	1355.85
352.885	1366.32
353.108	1375.88
353.332	1387.95
353.555	1397.74
353.779	1409.9
354.002	1422.9
354.226	1434.88
354.449	1447.3
354.673	1459.08
354.896	1472.34
355.12	1486.14
355.343	1495.39
355.566	1507.94
355.79	1519.9
356.013	1533.54
356.237	1547.97
356.46	1559.63
356.683	1571.5
356.907	1585.37
357.13	1595.43
357.353	1606.19
357.576	1618.57
357.8	1633.26
358.023	1646.59
358.246	1657.77
358.469	1669.99
358.693	1680.54
358.916	1695.65
359.139	1709.99
359.362	1722.19
359.585	1737.26
359.808	1754.01
360.031	1767.14
360.255	1781.72
360.478	1794.59
360.701	1810.17
360.924	1823.85
361.147	1838.99
361.37	1849.46
361.593	1862.59
361.816	1876.61
362.039	1889.48
362.262	1901.17
362.485	1913.63
362.708	1925.94
362.931	1940.57
363.154	1953.92
363.377	1969.03
363.599	1983.66
363.822	1999.19
364.045	2012.05
364.268	2026.19
364.491	2039.94
364.714	2054.99
364.936	2071.81
365.159	2087.05
365.382	2100.88
365.605	2113.55
365.828	2129.7
366.05	2143.65
366.273	2158.37
366.496	2171.92
366.718	2186.23
366.941	2203.21
367.164	2217.45
367.386	2234.34
367.609	2248.35
367.832	2266.63
368.054	2284.39
368.277	2300.05
368.5	2316.12
368.722	2333.59
368.945	2353.05
369.167	2370.35
369.39	2385.21
369.612	2402.61
369.835	2415.99
370.057	2434.88
370.28	2449.57
370.502	2469.06
370.725	2483.97
370.947	2501.08
371.169	2516.25
371.392	2533.41
371.614	2549.34
371.837	2567.14
372.059	2585.37
372.281	2606.59
372.504	2623.39
372.726	2641.99
372.948	2657.08
373.171	2674.66
373.393	2691.95
373.615	2710.85
373.837	2727.52
374.06	2745.99
374.282	2764.61
374.504	2782.14
374.726	2799.41
374.948	2818.54
375.17	2836.61
375.393	2858.14
375.615	2879.01
375.837	2896.66
376.059	2916.15
376.281	2935.5
376.503	2957.37
376.725	2976.08
376.947	2996.14
377.169	3015.45
377.391	3034.72
377.613	3057.19
377.835	3077.61
378.057	3097.57
378.279	3122.43
378.501	3142.14
378.723	3164.46
378.945	3182.55
379.167	3205.3
379.389	3228.57
379.611	3252.14
379.833	3276.01
380.054	3297.99
380.276	3320.86
380.498	3347.14
380.72	3371.21
380.942	3398.3
381.163	3424.01
381.385	3450.77
381.607	3476.34
381.829	3499.25
382.05	3520.57
382.272	3548.72
382.494	3572.28
382.716	3599.08
382.937	3622.21
383.159	3645.9
383.381	3671.32
383.602	3696.7
383.824	3721.5
384.045	3746.81
384.267	3775.85
384.488	3805.61
384.71	3827.43
384.932	3853.28
385.153	3876.34
385.375	3905.79
385.596	3933.66
385.818	3960.95
386.039	3987.01
386.261	4017.43
386.482	4046.83
386.703	4074.12
386.925	4101.97
387.146	4132.17
387.368	4161.48
387.589	4192.65
387.81	4220.61
388.032	4250.28
388.253	4281.57
388.474	4312.5
388.696	4343.75
388.917	4370.92
389.138	4401.72
389.359	4430.12
389.581	4459.85
389.802	4491.65
390.023	4524.34
390.244	4555.99
390.465	4584.52
390.687	4609.88
390.908	4636.3
391.129	4662.94
391.35	4694.97
391.571	4725.3
391.792	4759.72
392.013	4791.88
392.234	4824.34
392.455	4853.88
392.677	4884.77
392.898	4914.63
393.119	4947.28
393.34	4984.81
393.561	5017.61
393.782	5053.19
394.003	5086.28
394.223	5120.14
394.444	5153.57
394.665	5185.54
394.886	5219.45
395.107	5253.17
395.328	5285.99
395.549	5320.48
395.77	5356.41
395.99	5392.86
396.211	5423.72
396.432	5455.86
396.653	5488.48
396.874	5520.7
397.094	5556.55
397.315	5593.35
397.536	5624.21
397.757	5663.21
397.977	5698.01
398.198	5730.28
398.419	5763.77
398.639	5804.65
398.86	5842.83
399.081	5875.32
399.301	5912.79
399.522	5947.5
399.742	5983.06
399.963	6020.52
400.184	6057.08
400.404	6090.3
400.625	6124.19
400.845	6157.35
401.066	6187.37
401.286	6219.72
401.507	6256.46
401.727	6292.54
401.948	6323.83
402.168	6355.68
402.388	6394.54
402.609	6429.14
402.829	6465.9
403.05	6501.41
403.27	6534.9
403.49	6571.03
403.711	6606.63
403.931	6643.65
404.151	6676.72
404.372	6714.1
404.592	6747.57
404.812	6779.05
405.032	6813.57
405.253	6848.7
405.473	6885.92
405.693	6922.74
405.913	6960.74
406.133	6993.74
406.353	7033.77
406.574	7068.28
406.794	7109.34
407.014	7144.9
407.234	7181.28
407.454	7215.19
407.674	7253.57
407.894	7287.83
408.114	7327.01
408.334	7361.99
408.554	7403.79
408.774	7436.74
408.994	7477.5
409.214	7509.17
409.434	7549.35
409.654	7591.06
409.874	7625.48
410.094	7661.74
410.314	7700.35
410.534	7737.12
410.754	7773.55
410.974	7809.03
411.193	7846.5
411.413	7885.57
411.633	7923.77
411.853	7964.52
412.073	7997.14
412.292	8040.35
412.512	8080.54
412.732	8119.21
412.952	8163.74
413.171	8204.17
413.391	8246.14
413.611	8289.26
413.831	8327.99
414.05	8373.68
414.27	8413.86
414.489	8456.9
414.709	8501.39
414.929	8543.54
415.148	8589.99
415.368	8632.05
415.587	8679.66
415.807	8723.48
416.026	8762.7
416.246	8808.34
416.465	8849.77
416.685	8892.88
416.904	8940.14
417.124	8979.41
417.343	9028.55
417.563	9068.35
417.782	9110.59
418.002	9152.74
418.221	9196.5
418.44	9242.01
418.66	9281.65
418.879	9321.25
419.098	9360.54
419.318	9403.35
419.537	9449.25
419.756	9493.28
419.976	9538.57
420.195	9586.77
420.414	9627.5
420.633	9668.9
420.853	9715.45
421.072	9763.52
421.291	9806.21
421.51	9855.03
421.729	9901.7
421.948	9946.48
422.168	9985.21
422.387	10027.88
422.606	10066.28
422.825	10113.55
423.044	10158.48
423.263	10199.92
423.482	10242.48
423.701	10291.66
423.92	10332.88
424.139	10374.21
424.358	10420.85
424.577	10467.79
424.796	10516.14
425.015	10558.15
425.234	10600.94
425.453	10642.88
425.672	10687.7
425.891	10734.92
426.11	10784.45
426.328	10836.45
426.547	10881.01
426.766	10928.85
426.985	10973.52
427.204	11017.54
427.422	11067.37
427.641	11118.17
427.86	11169.25
428.079	11217.17
428.297	11263.39
428.516	11306.46
428.735	11345.57
428.954	11397.37
429.172	11442.37
429.391	11493.01
429.61	11543.21
429.828	11591.97
430.047	11636.59
430.265	11690.46
430.484	11735.55
430.703	11775.92
430.921	11824.14
431.14	11875.41
431.358	11919.66
431.577	11967.05
431.795	12012.54
432.014	12056.85
432.232	12104.34
432.451	12158.66
432.669	12203.57
432.887	12254.99
433.106	12307.79
433.324	12358.34
433.543	12411.35
433.761	12459.54
433.979	12506.92
434.198	12554.3
434.416	12603.85
434.634	12647.88
434.853	12687.77
435.071	12732.95
435.289	12779.48
435.507	12830.59
435.726	12872.92
435.944	12911.35
436.162	12958.55
436.38	13002.39
436.598	13046.06
436.817	13092.61
437.035	13142.85
437.253	13193.35
437.471	13238.21
437.689	13280.88
437.907	13327.01
438.125	13375.45
438.343	13426.97
438.561	13476.25
438.78	13529.23
438.998	13581.81
439.216	13629.25
439.434	13681.21
439.652	13725.39
439.869	13780.23
440.087	13833.88
440.305	13882.23
440.523	13926.3
440.741	13972.01
440.959	14021.94
441.177	14072.15
441.395	14121.88
441.613	14174.26
441.831	14214.77
442.048	14264.68
442.266	14306.23
442.484	14354.52
442.702	14400.17
442.919	14457.79
443.137	14512.28
443.355	14556.55
443.573	14602.88
443.79	14647.61
444.008	14694.43
444.226	14747.43
444.443	14791.15
444.661	14843.14
444.879	14889.7
445.096	14943.55
445.314	14986.7
445.532	15042.7
445.749	15089.94
445.967	15133.97
446.184	15183.97
446.402	15226.63
446.619	15268.95
446.837	15317.68
447.054	15359.34
447.272	15407.83
447.489	15450.08
447.707	15498.72
447.924	15537.45
448.141	15587.41
448.359	15642.48
448.576	15690.3
448.794	15743.3
449.011	15795.26
449.228	15847.74
449.446	15896.74
449.663	15947.66
449.88	15999.35
450.098	16046.52
450.315	16091.3
450.532	16139.92
450.749	16183.14
450.967	16234.28
451.184	16279.15
451.401	16329.81
451.618	16378.94
451.835	16432.08
452.052	16473.35
452.27	16524.35
452.487	16573.3
452.704	16622.26
452.921	16668.86
453.138	16723.75
453.355	16769.45
453.572	16817.32
453.789	16865.72
454.006	16909.25
454.223	16950.19
454.44	17004.25
