Data from test1_MAYP1115451__1__10-14-38-055.txt Node

Date: Wed Jun 12 10:14:38 MDT 2024
User: Modes Lab
Spectrometer: MAYP111545
Trigger mode: 0
Integration Time (sec): 8.000000E-3
Scans to average: 5
Electric dark correction enabled: true
Nonlinearity correction enabled: false
Boxcar width: 5
XAxis mode: Wavelengths
Number of Pixels in Spectrum: 2068
>>>>>Begin Spectral Data<<<<<
165.214	162.03
165.449	161.8
165.683	170.77
165.918	180.39
166.152	187.01
166.387	192.48
166.621	124.37
166.856	162.55
167.09	181.48
167.325	205.55
167.559	221.37
167.794	236.31
168.028	243.8
168.263	245.88
168.497	245.37
168.732	245.57
168.966	246.11
169.2	247.33
169.435	249.53
169.669	251.48
169.903	252.89
170.138	255.58
170.372	256.18
170.606	258.11
170.841	258.58
171.075	259.71
171.309	261.8
171.544	263.6
171.778	265.93
172.012	267.04
172.246	268.95
172.48	270.57
172.715	272.35
172.949	274.8
173.183	276.49
173.417	278.82
173.651	280.51
173.885	282.55
174.119	282.91
174.354	284.02
174.588	284.93
174.822	284.78
175.056	284.8
175.29	285.08
175.524	285.02
175.758	284.88
175.992	284.95
176.226	285.46
176.46	285.28
176.694	286.17
176.928	286.02
177.162	287.11
177.396	287.49
177.63	288.89
177.864	290.04
178.097	290.84
178.331	292.8
178.565	293.15
178.799	294.71
179.033	294.49
179.267	294.75
179.5	295.58
179.734	296.22
179.968	297.24
180.202	297.98
180.436	297.8
180.669	298.93
180.903	299.46
181.137	300.68
181.371	300.97
181.604	302.64
181.838	304.55
182.072	305.97
182.305	306.37
182.539	307.37
182.772	308.24
183.006	309.48
183.24	309.62
183.473	313.04
183.707	314.69
183.94	315.4
184.174	316.33
184.408	317.22
184.641	318.53
184.875	318.97
185.108	320.62
185.342	321.86
185.575	322.86
185.808	324.57
186.042	323.4
186.275	324.08
186.509	325.2
186.742	326.51
186.976	328.77
187.209	330.4
187.442	331.97
187.676	332.44
187.909	334.02
188.142	334.64
188.376	335.97
188.609	337.51
188.842	339.04
189.076	341.24
189.309	342.89
189.542	342.75
189.775	343.29
190.009	345.53
190.242	346.86
190.475	348.17
190.708	351.57
190.941	353.42
191.174	354.64
191.408	355.48
191.641	356.64
191.874	357.97
192.107	361.49
192.34	363.13
192.573	364.35
192.806	367
193.039	368.04
193.272	369.44
193.505	370.95
193.738	373.71
193.971	376.02
194.204	378.15
194.437	380.04
194.67	380.8
194.903	382.88
195.136	386.86
195.369	387.82
195.602	389.93
195.835	391.93
196.068	394.58
196.301	395.71
196.533	398
196.766	399.31
196.999	401.58
197.232	403.18
197.465	405.82
197.698	406.4
197.93	408.77
198.163	411.78
198.396	413.68
198.629	415.4
198.861	417.53
199.094	419.18
199.327	421.82
199.559	423.8
199.792	425.77
200.025	427.89
200.257	430.33
200.49	433.29
200.723	435.4
200.955	437.57
201.188	438.71
201.42	441.68
201.653	444.28
201.886	446.66
202.118	449.37
202.351	452.91
202.583	456.26
202.816	458.2
203.048	460.35
203.281	461.31
203.513	463.73
203.745	467.97
203.978	468.86
204.21	471.4
204.443	473.33
204.675	474.98
204.907	477.11
205.14	477.95
205.372	481.04
205.605	482.68
205.837	486.55
206.069	488.04
206.302	489.31
206.534	492.24
206.766	494.69
206.998	497.04
207.231	500.02
207.463	501.73
207.695	505.17
207.927	506.89
208.159	510.62
208.392	512.35
208.624	515.98
208.856	518.02
209.088	519.88
209.32	522.71
209.552	525.26
209.784	527.44
210.017	529.88
210.249	531
210.481	533.53
210.713	535.33
210.945	536.42
211.177	538.18
211.409	541.11
211.641	542.75
211.873	543.06
212.105	543.64
212.337	545.22
212.569	547.71
212.801	549.73
213.033	551.31
213.264	551.71
213.496	554.42
213.728	555.66
213.96	556.71
214.192	558.8
214.424	561.15
214.656	564.04
214.887	565.84
215.119	568.24
215.351	571.2
215.583	573.64
215.815	576.4
216.046	579.29
216.278	580.66
216.51	583.51
216.741	585.04
216.973	588.28
217.205	591.35
217.436	593.55
217.668	595.69
217.9	596.53
218.131	597.04
218.363	598.28
218.595	598.28
218.826	600.31
219.058	601.6
219.289	603.8
219.521	604.24
219.752	605.22
219.984	605.98
220.215	604.62
220.447	606.08
220.678	606.31
220.91	608.04
221.141	610.66
221.373	611.28
221.604	611.84
221.836	613.11
222.067	614.31
222.298	614.29
222.53	614.66
222.761	615.97
222.993	617.38
223.224	619.71
223.455	620.73
223.686	620.48
223.918	622.35
224.149	623.08
224.38	623.69
224.612	623.98
224.843	624.88
225.074	626.46
225.305	627.09
225.536	626.84
225.768	626.8
225.999	627.51
226.23	628.18
226.461	629.08
226.692	629.82
226.923	630.64
227.155	631.84
227.386	631.88
227.617	631.69
227.848	634.15
228.079	634.15
228.31	633.73
228.541	633.84
228.772	634.64
229.003	634.82
229.234	635.69
229.465	634.58
229.696	634.88
229.927	635.18
230.158	636.11
230.389	633.97
230.62	635.22
230.85	636.95
231.081	636.22
231.312	635.37
231.543	635.13
231.774	634.02
232.005	635.62
232.236	634.13
232.466	634.62
232.697	634.53
232.928	635.73
233.159	634.02
233.389	633.33
233.62	633.69
233.851	633.69
234.082	633.73
234.312	634.06
234.543	634.28
234.774	635.26
235.004	634.69
235.235	635.26
235.466	634.35
235.696	634.89
235.927	635.8
236.157	634.8
236.388	635.75
236.618	635.2
236.849	635
237.08	633.33
237.31	633.08
237.541	632.66
237.771	631.73
238.002	632.02
238.232	632.22
238.463	631.89
238.693	632.28
238.923	630.75
239.154	630.53
239.384	629.46
239.615	631.13
239.845	629.84
240.075	630
240.306	629.62
240.536	628.64
240.766	628.26
240.997	626.29
241.227	626.15
241.457	625.57
241.687	625.18
241.918	625.58
242.148	623.89
242.378	624.77
242.608	625.04
242.839	625.64
243.069	625.71
243.299	624.11
243.529	626.8
243.759	627.06
243.989	628.18
244.22	628.24
244.45	627.33
244.68	627
244.91	626.28
245.14	624.91
245.37	623.93
245.6	624.6
245.83	623.93
246.06	621.2
246.29	620.57
246.52	620.11
246.75	619.69
246.98	620.04
247.21	619
247.44	617.8
247.67	616.71
247.9	616.09
248.13	614.73
248.359	615.88
248.589	614.95
248.819	613.75
249.049	612.11
249.279	611.57
249.509	610.8
249.738	611.51
249.968	611.66
250.198	611.13
250.428	610.6
250.657	609.08
250.887	607.57
251.117	607.33
251.347	606.2
251.576	606.11
251.806	604.04
252.036	603.75
252.265	602.04
252.495	601.88
252.725	601.11
252.954	598.89
253.184	597.75
253.413	598.13
253.643	598.26
253.873	597.53
254.102	596.58
254.332	597.2
254.561	596.55
254.791	596.38
255.02	594.58
255.25	595.91
255.479	596.13
255.708	596.69
255.938	594.17
256.167	592.62
256.397	592.91
256.626	592
256.856	591.22
257.085	590.13
257.314	588.35
257.544	587.84
257.773	585.64
258.002	586.68
258.232	586.38
258.461	586
258.69	585.33
258.919	583.6
259.149	582.24
259.378	580.18
259.607	578.37
259.836	577.42
260.065	577.31
260.295	577.17
260.524	575.95
260.753	575.37
260.982	574.77
261.211	574.49
261.44	574.73
261.669	574.15
261.899	573.08
262.128	572.89
262.357	572.88
262.586	571.4
262.815	570.62
263.044	569.31
263.273	571.71
263.502	570.77
263.731	570.44
263.96	568.91
264.189	568.17
264.418	569.2
264.646	569.24
264.875	568.57
265.104	567.35
265.333	567.51
265.562	565.57
265.791	561.68
266.02	561.13
266.249	559.15
266.477	558.04
266.706	557.29
266.935	554.86
267.164	554.17
267.393	553.44
267.621	554
267.85	551.89
268.079	551.88
268.307	550.31
268.536	549.04
268.765	550.2
268.993	549.97
269.222	550.58
269.451	552.46
269.679	552.15
269.908	551.82
270.137	551.11
270.365	551.84
270.594	552.86
270.822	552.51
271.051	554.58
271.279	553.6
271.508	554.58
271.736	555.24
271.965	554.42
272.193	554.33
272.422	554.38
272.65	553.69
272.879	552.58
273.107	551.33
273.336	551.82
273.564	550.88
273.792	549.42
274.021	548.69
274.249	546.18
274.477	544.82
274.706	543.44
274.934	542.73
275.162	542.57
275.391	541.98
275.619	540.31
275.847	538.57
276.075	537.46
276.304	535.8
276.532	534.26
276.76	534.18
276.988	533
277.216	532.58
277.445	531.33
277.673	530.58
277.901	530.22
278.129	529.31
278.357	529
278.585	528.29
278.813	528.18
279.041	527.37
279.269	526.38
279.497	525.78
279.725	524.82
279.954	523.46
280.182	522.64
280.41	521.6
280.637	521.95
280.865	522.2
281.093	522.18
281.321	522.18
281.549	522.64
281.777	522.58
282.005	520.49
282.233	520.75
282.461	520.58
282.689	519.46
282.916	518.98
283.144	518.48
283.372	515.88
283.6	515.15
283.828	514.71
284.055	513.57
284.283	513.93
284.511	514.18
284.739	512.15
284.966	512.75
285.194	512.2
285.422	511.64
285.649	512.4
285.877	511.68
286.105	509.31
286.332	509.55
286.56	510.06
286.788	507.97
287.015	509.68
287.243	509.44
287.47	508.13
287.698	507.18
287.925	506.62
288.153	505
288.381	506.58
288.608	507.37
288.836	506.29
289.063	504.73
289.29	503.77
289.518	502.62
289.745	502.62
289.973	502.09
290.2	502.84
290.428	501.37
290.655	500.89
290.882	498.86
291.11	498.86
291.337	498.04
291.564	497.88
291.792	498.33
292.019	497.15
292.246	495.75
292.473	495.18
292.701	494.46
292.928	493.2
293.155	492.33
293.382	491.64
293.61	490.88
293.837	489.55
294.064	487.95
294.291	487.13
294.518	487.42
294.745	486.71
294.972	487.26
295.2	485.88
295.427	487.51
295.654	486.78
295.881	487.84
296.108	486.38
296.335	486.71
296.562	486.75
296.789	486.33
297.016	485.29
297.243	485.48
297.47	485.28
297.697	486.11
297.924	485.17
298.151	485.13
298.378	483.64
298.604	483.38
298.831	483.04
299.058	482.68
299.285	481.78
299.512	480.8
299.739	480.69
299.966	478.49
300.192	477.26
300.419	476.37
300.646	475.13
300.873	475.06
301.099	474.62
301.326	474.26
301.553	473.49
301.78	474.53
302.006	474.98
302.233	474.53
302.46	474.37
302.686	472.8
302.913	473.37
303.14	472.4
303.366	471.55
303.593	471
303.819	471.2
304.046	470.77
304.272	468.91
304.499	468.57
304.725	468.18
304.952	466.75
305.179	466.75
305.405	466.88
305.631	466.89
305.858	467.08
306.084	467.2
306.311	465.55
306.537	466.35
306.764	465.64
306.99	464.89
307.216	464.82
307.443	465.18
307.669	466.09
307.895	465.28
308.122	465.48
308.348	464.71
308.574	464.4
308.801	463.77
309.027	464.69
309.253	464.49
309.479	464.35
309.706	463.93
309.932	464.51
310.158	464.04
310.384	462.91
310.61	463.55
310.837	462.84
311.063	462.35
311.289	462.18
311.515	459.95
311.741	459.89
311.967	460.02
312.193	459.73
312.419	459.37
312.645	458.53
312.871	457.18
313.097	456.88
313.323	458.91
313.549	460.44
313.775	461.68
314.001	462.78
314.227	463.15
314.453	462.49
314.679	463.18
314.905	463.46
315.131	463.62
315.357	465.6
315.583	465.09
315.809	464.78
316.034	464.13
316.26	463.38
316.486	462.2
316.712	463.04
316.938	464.22
317.163	463.35
317.389	463.58
317.615	464.48
317.841	464.77
318.066	465
318.292	464.95
318.518	465.53
318.743	466.33
318.969	467.6
319.195	468.08
319.42	467.82
319.646	469.89
319.872	469.88
320.097	471.37
320.323	472.02
320.548	474.09
320.774	475.66
320.999	476.73
321.225	478.09
321.45	480.18
321.676	481.17
321.901	483.33
322.127	484.06
322.352	485.93
322.578	486.88
322.803	489.04
323.029	490.06
323.254	490.75
323.479	491.49
323.705	492.29
323.93	493.35
324.155	495.09
324.381	496.6
324.606	498.78
324.831	501.08
325.057	502.82
325.282	503.93
325.507	505.77
325.732	508.11
325.958	511.71
326.183	515.82
326.408	516.84
326.633	520.86
326.858	523.15
327.084	525.77
327.309	528.82
327.534	531.57
327.759	534.55
327.984	538.11
328.209	540.86
328.434	543.28
328.659	545.38
328.884	551.24
329.109	553.46
329.334	556.17
329.559	559.44
329.784	562.58
330.009	566.64
330.234	570.31
330.459	573.8
330.684	576.35
330.909	579.69
331.134	583.84
331.359	585.66
331.584	589.8
331.809	594.98
332.034	598.33
332.259	601.53
332.483	605.97
332.708	610.49
332.933	614.84
333.158	621.44
333.383	627.33
333.607	632.38
333.832	637.62
334.057	641.66
334.282	646.49
334.506	651.91
334.731	658.33
334.956	663.4
335.18	669.49
335.405	674.15
335.63	679.22
335.854	683.77
336.079	689.71
336.303	695.78
336.528	702.24
336.753	707.77
336.977	715.26
337.202	721.13
337.426	728.68
337.651	735.33
337.875	742.09
338.1	749.31
338.324	755.42
338.549	762.77
338.773	770.89
338.997	778.58
339.222	785.93
339.446	792.28
339.671	800.2
339.895	805.58
340.119	812.29
340.344	820.55
340.568	828.28
340.792	836.37
341.017	843.37
341.241	849.28
341.465	856.4
341.689	862.8
341.914	871.77
342.138	880.46
342.362	889.82
342.586	898.73
342.811	905.84
343.035	913.69
343.259	921.68
343.483	930.44
343.707	939.89
343.931	948.86
344.155	960.33
344.38	967.95
344.604	975.11
344.828	984.73
345.052	993.6
345.276	1003.2
345.5	1012.35
345.724	1023.04
345.948	1032.04
346.172	1042.42
346.396	1053.73
346.62	1065.53
346.844	1076.17
347.068	1086.58
347.292	1096.71
347.515	1106.49
347.739	1119.86
347.963	1131.57
348.187	1141.48
348.411	1152.77
348.635	1164.82
348.859	1174.2
349.082	1182.18
349.306	1193.04
349.53	1204.91
349.754	1216.73
349.977	1229.6
350.201	1239.24
350.425	1250.55
350.649	1262.97
350.872	1273.17
351.096	1283
351.32	1295.98
351.543	1307.46
351.767	1317.13
351.99	1327.04
352.214	1336.91
352.438	1348.13
352.661	1359.17
352.885	1369.09
353.108	1379.35
353.332	1391.46
353.555	1402.53
353.779	1411.37
354.002	1422.15
354.226	1434.37
354.449	1447.89
354.673	1459.31
354.896	1471.95
355.12	1484.86
355.343	1497.86
355.566	1511.86
355.79	1523.73
356.013	1537.26
356.237	1551.95
356.46	1565.06
356.683	1579.44
356.907	1593.73
357.13	1607
357.353	1615.82
357.576	1626.44
357.8	1637.35
358.023	1649.28
358.246	1662.71
358.469	1674.51
358.693	1686.49
358.916	1700.18
359.139	1712.53
359.362	1722.53
359.585	1734.08
359.808	1750.35
360.031	1765.44
360.255	1780.37
360.478	1792.95
360.701	1808.04
360.924	1822.68
361.147	1834.8
361.37	1848.31
361.593	1860.53
361.816	1876.24
362.039	1892.51
362.262	1904.82
362.485	1918.18
362.708	1930.78
362.931	1944.04
363.154	1957.91
363.377	1970
363.599	1984.48
363.822	1997.84
364.045	2013.57
364.268	2024.08
364.491	2036.53
364.714	2050.62
364.936	2065.22
365.159	2080.4
365.382	2097.51
365.605	2111.48
365.828	2130.22
366.05	2144.62
366.273	2159.51
366.496	2174.66
366.718	2194.09
366.941	2210.48
367.164	2226.6
367.386	2241.2
367.609	2257.89
367.832	2273.29
368.054	2289.95
368.277	2301.57
368.5	2321.48
368.722	2338.49
368.945	2354.38
369.167	2369.04
369.39	2385.62
369.612	2402.89
369.835	2418.55
370.057	2434.09
370.28	2448.33
370.502	2462.91
370.725	2481.13
370.947	2494.69
371.169	2513.15
371.392	2528.86
371.614	2545.08
371.837	2561.4
372.059	2577.66
372.281	2594.64
372.504	2612.97
372.726	2633.13
372.948	2651.78
373.171	2669.78
373.393	2689.64
373.615	2703.89
373.837	2722.29
374.06	2740.77
374.282	2758.91
374.504	2778.71
374.726	2799.86
374.948	2819.42
375.17	2840.08
375.393	2857.88
375.615	2877.18
375.837	2897.42
376.059	2919.49
376.281	2942.46
376.503	2961.71
376.725	2983.82
376.947	3003.29
377.169	3020.98
377.391	3040.6
377.613	3058.09
377.835	3081.44
378.057	3103.73
378.279	3123.06
378.501	3142.93
378.723	3162.78
378.945	3187.2
379.167	3209.2
379.389	3231.58
379.611	3254.4
379.833	3280.75
380.054	3305.57
380.276	3327.42
380.498	3352.77
380.72	3375.2
380.942	3398.75
381.163	3422.98
381.385	3446.35
381.607	3472.49
381.829	3498.49
382.05	3524.26
382.272	3546.24
382.494	3572.37
382.716	3595.31
382.937	3619.31
383.159	3647.17
383.381	3677.38
383.602	3701.75
383.824	3726.11
384.045	3747.89
384.267	3774.04
384.488	3800.89
384.71	3826.88
384.932	3851.82
385.153	3879.88
385.375	3904.53
385.596	3931.8
385.818	3956.38
386.039	3985.38
386.261	4015.71
386.482	4046.37
386.703	4072.97
386.925	4100.78
387.146	4131.2
387.368	4161.84
387.589	4194.28
387.81	4223.26
388.032	4252.95
388.253	4282.11
388.474	4312.75
388.696	4341.6
388.917	4369.88
389.138	4399.73
389.359	4432.78
389.581	4462.98
389.802	4491.57
390.023	4519.88
390.244	4550.09
390.465	4579.31
390.687	4608.24
390.908	4637.2
391.129	4668.82
391.35	4700.48
391.571	4732.15
391.792	4763.64
392.013	4793.84
392.234	4824.15
392.455	4856.71
392.677	4888.77
392.898	4922.22
393.119	4955.58
393.34	4988.51
393.561	5022.84
393.782	5055.91
394.003	5087.09
394.223	5119.37
394.444	5150.04
394.665	5183.02
394.886	5215.55
395.107	5252.82
395.328	5286.17
395.549	5319.28
395.77	5353.08
395.99	5384.93
396.211	5419.73
396.432	5453.55
396.653	5489.71
396.874	5527.97
397.094	5565.53
397.315	5604.13
397.536	5634.49
397.757	5666.53
397.977	5701.48
398.198	5736.38
398.419	5768.08
398.639	5804
398.86	5839.69
399.081	5872.04
399.301	5906.49
399.522	5942.8
399.742	5974.97
399.963	6011.08
400.184	6047.46
400.404	6084.13
400.625	6119.18
400.845	6159.44
401.066	6192.28
401.286	6227.26
401.507	6262.31
401.727	6299.78
401.948	6330.73
402.168	6363.86
402.388	6401.06
402.609	6439.62
402.829	6472.28
403.05	6506.08
403.27	6539.71
403.49	6571.6
403.711	6609.4
403.931	6643.93
404.151	6676.93
404.372	6715.88
404.592	6752.49
404.812	6785.55
405.032	6819.09
405.253	6854.66
405.473	6890.24
405.693	6924.58
405.913	6969.64
406.133	7002.42
406.353	7041.82
406.574	7075.49
406.794	7109.98
407.014	7145.86
407.234	7183.46
407.454	7220.46
407.674	7256.2
407.894	7296.08
408.114	7329.26
408.334	7358.73
408.554	7397.18
408.774	7427.93
408.994	7466.73
409.214	7504.6
409.434	7542.55
409.654	7580.2
409.874	7618.35
410.094	7660.77
410.314	7699.24
410.534	7741.11
410.754	7780.37
410.974	7817.06
411.193	7856.26
411.413	7894.17
411.633	7931.53
411.853	7966.38
412.073	8004.18
412.292	8040.97
412.512	8078.55
412.732	8118.09
412.952	8158.17
413.171	8198.73
413.391	8244.31
413.611	8289.69
413.831	8331.55
414.05	8376.75
414.27	8418.06
414.489	8461.55
414.709	8503.44
414.929	8546.97
415.148	8584.18
415.368	8625.08
415.587	8668.97
415.807	8712.71
416.026	8751.71
416.246	8795.33
416.465	8838.77
416.685	8887
416.904	8929.2
417.124	8972.33
417.343	9019.08
417.563	9066.44
417.782	9113.37
418.002	9158.31
418.221	9197.46
418.44	9244.97
418.66	9289.51
418.879	9330.8
419.098	9370.18
419.318	9414.8
419.537	9465.04
419.756	9505.33
419.976	9547.09
420.195	9589.89
420.414	9637.95
420.633	9682.6
420.853	9724.71
421.072	9764.78
421.291	9808.38
421.51	9854.86
421.729	9900.53
421.948	9937.6
422.168	9980.18
422.387	10030.71
422.606	10077.35
422.825	10117.58
423.044	10161.58
423.263	10207.11
423.482	10254.17
423.701	10301.22
423.92	10347.11
424.139	10388.44
424.358	10435.44
424.577	10480.26
424.796	10520.48
425.015	10565.24
425.234	10606.15
425.453	10652.91
425.672	10702.68
425.891	10747.28
426.11	10793.66
426.328	10838.4
426.547	10886.42
426.766	10931.4
426.985	10977.11
427.204	11022.84
427.422	11071.37
427.641	11123.68
427.86	11170.09
428.079	11216.48
428.297	11266.46
428.516	11313.53
428.735	11362.4
428.954	11409.09
429.172	11460.58
429.391	11514.15
429.61	11561.71
429.828	11603.31
430.047	11645.55
430.265	11684.86
430.484	11725.4
430.703	11763.91
430.921	11807.8
431.14	11855.33
431.358	11899.17
431.577	11942.88
431.795	11986.75
432.014	12036.09
432.232	12087.22
432.451	12140.28
432.669	12197.75
432.887	12245.38
433.106	12298.44
433.324	12343.48
433.543	12391.98
433.761	12441.53
433.979	12492.33
434.198	12539.33
434.416	12587.75
434.634	12631.42
434.853	12676.62
435.071	12724.29
435.289	12769.11
435.507	12814.11
435.726	12859.13
435.944	12906.77
436.162	12957.35
436.38	13000.38
436.598	13042.71
436.817	13087.98
437.035	13137.78
437.253	13182.64
437.471	13231.17
437.689	13287.31
437.907	13340.78
438.125	13393.38
438.343	13438.64
438.561	13481.44
438.78	13536.08
438.998	13591.11
439.216	13642.29
439.434	13693.33
439.652	13743.4
439.869	13784.22
440.087	13828.46
440.305	13876.89
440.523	13922.84
440.741	13977.77
440.959	14028.66
441.177	14076.33
441.395	14125.69
441.613	14174.18
441.831	14221.11
442.048	14265.58
442.266	14319.44
442.484	14367.2
442.702	14412.18
442.919	14460.11
443.137	14501.08
443.355	14549.77
443.573	14599.93
443.79	14647.48
444.008	14693.11
444.226	14735.26
444.443	14786.11
444.661	14833.37
444.879	14880.66
445.096	14929.84
445.314	14984.42
445.532	15040.68
445.749	15087.86
445.967	15128.17
446.184	15171.02
446.402	15220.06
446.619	15272.98
446.837	15324.95
447.054	15372.28
447.272	15420.26
447.489	15467.08
447.707	15511.11
447.924	15555.08
448.141	15607.33
448.359	15663.97
448.576	15722.86
448.794	15769.55
449.011	15818.04
449.228	15860.64
449.446	15908.17
449.663	15953.62
449.88	16005.15
450.098	16054.58
450.315	16100.29
450.532	16147.17
450.749	16189.75
450.967	16232.86
451.184	16284.93
451.401	16332.82
451.618	16383.88
451.835	16435.77
452.052	16484.29
452.27	16528.26
452.487	16575.13
452.704	16625.8
452.921	16676.91
453.138	16724.17
453.355	16773.09
453.572	16815.24
453.789	16864.49
454.006	16916
454.223	16959.15
454.44	17015.4
454.657	17067.82
454.874	17110.89
455.091	17152.09
