Data from test1_MAYP1115451__79__10-15-04-002.txt Node

Date: Wed Jun 12 10:15:04 MDT 2024
User: Modes Lab
Spectrometer: MAYP111545
Trigger mode: 0
Integration Time (sec): 8.000000E-3
Scans to average: 5
Electric dark correction enabled: true
Nonlinearity correction enabled: false
Boxcar width: 5
XAxis mode: Wavelengths
Number of Pixels in Spectrum: 2068
>>>>>Begin Spectral Data<<<<<
165.214	164
165.449	163.45
165.683	172.62
165.918	180.99
166.152	187.17
166.387	192.42
166.621	124.02
166.856	161.89
167.09	180.55
167.325	204
167.559	219.93
167.794	233.95
168.028	242.46
168.263	243.29
168.497	244.08
168.732	245.53
168.966	245.88
169.2	247.31
169.435	250.08
169.669	251.93
169.903	253.88
170.138	256.11
170.372	258.04
170.606	258.26
170.841	260.08
171.075	260.91
171.309	262.55
171.544	264.09
171.778	266.11
172.012	267.49
172.246	268.88
172.48	270.18
172.715	271.77
172.949	273.38
173.183	275.68
173.417	277.24
173.651	278.29
173.885	279.04
174.119	279.91
174.354	279.28
174.588	279.93
174.822	279.69
175.056	279.71
175.29	279.6
175.524	278.84
175.758	278.66
175.992	279.28
176.226	280.38
176.46	280.13
176.694	281.35
176.928	283.37
177.162	284.51
177.396	285.51
177.63	286.35
177.864	286.98
178.097	288.78
178.331	289.86
178.565	289.66
178.799	290.06
179.033	291.57
179.267	292.55
179.5	293
179.734	292.84
179.968	294.28
180.202	294.69
180.436	297.31
180.669	298.42
180.903	299.4
181.137	301.15
181.371	302.66
181.604	303.49
181.838	305.31
182.072	306.78
182.305	308.77
182.539	309.37
182.772	310.38
183.006	309.82
183.24	310.02
183.473	312.86
183.707	313.97
183.94	314.66
184.174	316.13
184.408	316.44
184.641	317.6
184.875	318.31
185.108	319.24
185.342	321.73
185.575	323.24
185.808	325.42
186.042	325.78
186.275	326.26
186.509	326.95
186.742	327.88
186.976	329.66
187.209	329.78
187.442	330.6
187.676	332.58
187.909	333.91
188.142	335.11
188.376	336.38
188.609	336.89
188.842	339.08
189.076	341.09
189.309	343.4
189.542	343.77
189.775	345.75
190.009	348.24
190.242	350.75
190.475	351.88
190.708	354.71
190.941	355.37
191.174	356.48
191.408	357.98
191.641	360.68
191.874	361.66
192.107	365.09
192.34	366.48
192.573	367.98
192.806	369.57
193.039	370.77
193.272	372.15
193.505	374.11
193.738	377.97
193.971	380.86
194.204	381.78
194.437	384.28
194.67	385.04
194.903	387.71
195.136	389.44
195.369	389.75
195.602	390.77
195.835	392.08
196.068	395.18
196.301	396.13
196.533	397.77
196.766	399.26
196.999	399.97
197.232	402.77
197.465	404.48
197.698	405.66
197.93	408.95
198.163	413.04
198.396	415.69
198.629	417.38
198.861	420
199.094	423.22
199.327	426.38
199.559	429.86
199.792	430.95
200.025	433.78
200.257	437.04
200.49	439.22
200.723	441.17
200.955	443.22
201.188	445.68
201.42	447.31
201.653	447.51
201.886	450.06
202.118	452.31
202.351	455.48
202.583	458
202.816	459.49
203.048	461.62
203.281	462.82
203.513	464.29
203.745	466.98
203.978	468.38
204.21	470.28
204.443	472.24
204.675	473.38
204.907	475.98
205.14	478.11
205.372	480.8
205.605	482.2
205.837	484.71
206.069	488.62
206.302	490.35
206.534	493.73
206.766	496.48
206.998	497.48
207.231	499.66
207.463	500.84
207.695	503.08
207.927	505.49
208.159	508.53
208.392	511.18
208.624	512.22
208.856	514.75
209.088	516.2
209.32	519.55
209.552	521.68
209.784	525
210.017	525.88
210.249	527.44
210.481	528.88
210.713	531.57
210.945	533.84
211.177	536.6
211.409	536.22
211.641	538.71
211.873	539.6
212.105	542.24
212.337	543.58
212.569	548.09
212.801	550.58
213.033	552.8
213.264	552.22
213.496	554.38
213.728	556.35
213.96	560.24
214.192	561.24
214.424	563.28
214.656	564.84
214.887	569
215.119	570.35
215.351	571.48
215.583	572.46
215.815	576.29
216.046	576.75
216.278	578.82
216.51	580.51
216.741	584.75
216.973	587.04
217.205	589.18
217.436	588.95
217.668	591.38
217.9	593.44
218.131	595.73
218.363	597.17
218.595	600.86
218.826	601.29
219.058	602.11
219.289	601.42
219.521	601.29
219.752	602.64
219.984	603.51
220.215	602.91
220.447	602.88
220.678	603.91
220.91	604.69
221.141	603.93
221.373	605.37
221.604	606.31
221.836	608.49
222.067	610.6
222.298	611.44
222.53	612.22
222.761	614.49
222.993	616.55
223.224	619.48
223.455	621.46
223.686	622.71
223.918	623.91
224.149	624.77
224.38	625.42
224.612	625.18
224.843	627
225.074	627.6
225.305	628.11
225.536	629.64
225.768	629.57
225.999	629.49
226.23	630.98
226.461	630.46
226.692	631.8
226.923	631.69
227.155	633.84
227.386	633.6
227.617	634.48
227.848	634.02
228.079	634.69
228.31	634.86
228.541	635.38
228.772	634.44
229.003	635.09
229.234	634.93
229.465	634.78
229.696	633.75
229.927	633.26
230.158	632.57
230.389	631.93
230.62	630.86
230.85	630.33
231.081	629.73
231.312	631.02
231.543	631.49
231.774	630.8
232.005	629.84
232.236	629.57
232.466	631.37
232.697	632.66
232.928	633.91
233.159	634.6
233.389	635.48
233.62	636.37
233.851	636.09
234.082	635.33
234.312	635.51
234.543	636.86
234.774	636.58
235.004	634.73
235.235	633.09
235.466	632.58
235.696	632.64
235.927	631.51
236.157	630.97
236.388	631.08
236.618	632.08
236.849	634.08
237.08	634.2
237.31	636.35
237.541	636.2
237.771	636.62
238.002	636.42
238.232	635.09
238.463	635.13
238.693	634.88
238.923	633.66
239.154	632.24
239.384	631.06
239.615	631.08
239.845	628.8
240.075	629.44
240.306	629
240.536	628.04
240.766	628.37
240.997	627.93
241.227	626.51
241.457	626.28
241.687	626.31
241.918	626.49
242.148	624.51
242.378	624.35
242.608	623.24
242.839	623.46
243.069	623.58
243.299	621.22
243.529	622.13
243.759	623.11
243.989	622.97
244.22	623.29
244.45	621.22
244.68	622.06
244.91	622.06
245.14	623.15
245.37	622.82
245.6	622.4
245.83	622.98
246.06	621.29
246.29	620.31
246.52	619.86
246.75	618.51
246.98	618.26
247.21	617.26
247.44	616.6
247.67	614.17
247.9	611.86
248.13	611.4
248.359	610.78
248.589	609.8
248.819	609.66
249.049	608.26
249.279	608.42
249.509	607.28
249.738	607
249.968	605.49
250.198	605.28
250.428	605.6
250.657	603.38
250.887	602.78
251.117	603.26
251.347	602.55
251.576	602.69
251.806	601.73
252.036	601.04
252.265	599.18
252.495	599.51
252.725	597.35
252.954	597.68
253.184	598.33
253.413	598.48
253.643	597.02
253.873	596.35
254.102	596.4
254.332	596.26
254.561	596.62
254.791	597.71
255.02	598.42
255.25	599.58
255.479	598.77
255.708	599.17
255.938	597.8
256.167	596.37
256.397	594.77
256.626	593.38
256.856	590.75
257.085	589.84
257.314	588.68
257.544	586.48
257.773	585.46
258.002	584.89
258.232	584.18
258.461	584.91
258.69	585.57
258.919	584.8
259.149	583.42
259.378	583.22
259.607	582.31
259.836	582.28
260.065	581.84
260.295	580.55
260.524	581.09
260.753	579.49
260.982	577.29
261.211	577.04
261.44	575.8
261.669	575.09
261.899	577.08
262.128	576.13
262.357	574.46
262.586	573.91
262.815	574.02
263.044	571.75
263.273	573.38
263.502	573.35
263.731	571.75
263.96	572.82
264.189	572.86
264.418	568.18
264.646	567.64
264.875	566.53
265.104	565.17
265.333	563.71
265.562	562.55
265.791	558.91
266.02	557.22
266.249	556.57
266.477	555.37
266.706	553.24
266.935	553.66
267.164	553.97
267.393	553.02
267.621	553.22
267.85	552.28
268.079	552.17
268.307	552.04
268.536	550.82
268.765	550.64
268.993	549.86
269.222	551.2
269.451	551.18
269.679	550.28
269.908	550.29
270.137	548.89
270.365	549.93
270.594	550.38
270.822	550.68
271.051	552.02
271.279	550.53
271.508	551.48
271.736	551.15
271.965	552.28
272.193	552.18
272.422	553.15
272.65	553.53
272.879	552.91
273.107	552.18
273.336	551.98
273.564	551.26
273.792	551.24
274.021	548.82
274.249	547.53
274.477	545.22
274.706	542.88
274.934	540.75
275.162	539.42
275.391	538.17
275.619	535.51
275.847	533.28
276.075	533.17
276.304	532.38
276.532	532.69
276.76	531.73
276.988	531.17
277.216	532.22
277.445	531.49
277.673	530.91
277.901	531.2
278.129	531.33
278.357	532.02
278.585	530.78
278.813	530.2
279.041	527.95
279.269	526.08
279.497	525.2
279.725	524.35
279.954	523.71
280.182	523.98
280.41	523.6
280.637	522.49
280.865	521.2
281.093	520.46
281.321	519.37
281.549	519.48
281.777	521.31
282.005	521.98
282.233	520.78
282.461	520.08
282.689	518.71
282.916	517.71
283.144	517.06
283.372	517.8
283.6	517.04
283.828	516.42
284.055	515.93
284.283	514.17
284.511	512.97
284.739	513.33
284.966	513.78
285.194	513.57
285.422	512.18
285.649	513.37
285.877	511.02
286.105	511.51
286.332	511.69
286.56	512.44
286.788	512.86
287.015	512.66
287.243	511.68
287.47	510.91
287.698	510.06
287.925	509.29
288.153	508.68
288.381	509.28
288.608	508.31
288.836	507.26
289.063	505.95
289.29	504.13
289.518	503.31
289.745	501.84
289.973	501.46
290.2	501.15
290.428	500.86
290.655	500.84
290.882	499.57
291.11	498.78
291.337	497.55
291.564	496.8
291.792	496.82
292.019	496.15
292.246	496.88
292.473	496.15
292.701	496.49
292.928	495.93
293.155	495.09
293.382	494.33
293.61	493.86
293.837	494.49
294.064	495.06
294.291	495.66
294.518	494.37
294.745	493.66
294.972	493.71
295.2	491.89
295.427	490.31
295.654	489.68
295.881	488.91
296.108	488.78
296.335	488.18
296.562	486.6
296.789	484.2
297.016	484.18
297.243	482.71
297.47	480.98
297.697	480
297.924	481.42
298.151	480.08
298.378	480.29
298.604	479.38
298.831	478
299.058	477.04
299.285	478.18
299.512	477.75
299.739	477.28
299.966	476.97
300.192	476.6
300.419	474.8
300.646	475.09
300.873	474.57
301.099	473.82
301.326	473.62
301.553	474.84
301.78	474.15
302.006	473.06
302.233	473.29
302.46	472.73
302.686	473.62
302.913	472.84
303.14	470.51
303.366	469.93
303.593	470.15
303.819	470.02
304.046	468.42
304.272	468.42
304.499	469.02
304.725	467.71
304.952	467.24
305.179	465.91
305.405	466.44
305.631	468.04
305.858	467.66
306.084	466.09
306.311	465.44
306.537	465.75
306.764	463.13
306.99	462.02
307.216	463.13
307.443	463.73
307.669	462.98
307.895	462.04
308.122	460.75
308.348	460.15
308.574	460.49
308.801	460.93
309.027	460.58
309.253	462.15
309.479	461.29
309.706	460.98
309.932	460.88
310.158	461.4
310.384	462.29
310.61	461.86
310.837	462.4
311.063	462.44
311.289	461.84
311.515	461.09
311.741	460.04
311.967	461.64
312.193	461.4
312.419	460.88
312.645	460.93
312.871	459.42
313.097	460.06
313.323	459.78
313.549	459.51
313.775	458.75
314.001	458.42
314.227	459.18
314.453	459.66
314.679	459.02
314.905	459.06
315.131	459.95
315.357	461.17
315.583	461.17
315.809	461.04
316.034	460.58
316.26	462.78
316.486	463.98
316.712	464.58
316.938	463.98
317.163	465.11
317.389	464.4
317.615	464.6
317.841	465.84
318.066	466.89
318.292	468.2
318.518	469.15
318.743	467.88
318.969	468.46
319.195	468.95
319.42	469.4
319.646	470.35
319.872	472.77
320.097	472.17
320.323	473.38
320.548	474.62
320.774	475.62
320.999	477.33
321.225	479.55
321.45	479.97
321.676	480.22
321.901	482.11
322.127	482.57
322.352	484.24
322.578	486.58
322.803	488.15
323.029	489.77
323.254	491.58
323.479	493.18
323.705	494.24
323.93	496.35
324.155	498.58
324.381	500.06
324.606	502.35
324.831	504.28
325.057	505.88
325.282	506.75
325.507	508.13
325.732	510.48
325.958	512.18
326.183	515.51
326.408	517.42
326.633	521.62
326.858	524.89
327.084	526.46
327.309	527.95
327.534	531.57
327.759	534.64
327.984	537.73
328.209	539.64
328.434	543.18
328.659	546.08
328.884	549.57
329.109	550.28
329.334	552.42
329.559	557.91
329.784	561.8
330.009	564.48
330.234	568.48
330.459	571.55
330.684	575.13
330.909	579.58
331.134	583.04
331.359	586.22
331.584	591.48
331.809	595.62
332.034	598.38
332.259	601.66
332.483	607
332.708	610.88
332.933	615.2
333.158	620.2
333.383	624.98
333.607	630.42
333.832	636.62
334.057	641.2
334.282	646.91
334.506	652.18
334.731	657.49
334.956	663.02
335.18	668.69
335.405	674.42
335.63	679.42
335.854	684.57
336.079	689.48
336.303	694.97
336.528	700.68
336.753	706.95
336.977	713.4
337.202	721.09
337.426	726.78
337.651	732.4
337.875	737.91
338.1	746.35
338.324	752.49
338.549	759.09
338.773	766.02
338.997	772.11
339.222	779.62
339.446	785.86
339.671	793.09
339.895	800.17
340.119	808.91
340.344	818.31
340.568	824.62
340.792	832.22
341.017	839.78
341.241	848.22
341.465	856.86
341.689	863.84
341.914	871.78
342.138	878.78
342.362	888.86
342.586	897.17
342.811	904.73
343.035	914.11
343.259	923.24
343.483	931.66
343.707	940.24
343.931	949.73
344.155	959.31
344.38	969.73
344.604	981.2
344.828	988.93
345.052	998
345.276	1006.77
345.5	1015.51
345.724	1025.6
345.948	1036.08
346.172	1047.37
346.396	1056.68
346.62	1065.62
346.844	1075.09
347.068	1082.4
347.292	1093.17
347.515	1103.31
347.739	1115.97
347.963	1126.6
348.187	1136.04
348.411	1147.26
348.635	1156.08
348.859	1166.55
349.082	1177.28
349.306	1187.49
349.53	1198.55
349.754	1208.55
349.977	1220.17
350.201	1229.57
350.425	1241.11
350.649	1253.04
350.872	1265.29
351.096	1277.4
351.32	1290.06
351.543	1302
351.767	1314.73
351.99	1325.37
352.214	1336.71
352.438	1347.58
352.661	1360.6
352.885	1372.22
353.108	1384.28
353.332	1393.93
353.555	1404.93
353.779	1416.51
354.002	1428.48
354.226	1438.88
354.449	1453.02
354.673	1464.08
354.896	1475.17
355.12	1485.84
355.343	1497.2
355.566	1507.08
355.79	1518.66
356.013	1531.2
356.237	1543.09
356.46	1556.58
356.683	1569.26
356.907	1580.84
357.13	1595.22
357.353	1609.26
357.576	1624.26
357.8	1636.84
358.023	1651.04
358.246	1663.24
358.469	1676.38
358.693	1689.75
358.916	1702.11
359.139	1714.91
359.362	1728.22
359.585	1739.58
359.808	1752.73
360.031	1761.82
360.255	1774.71
360.478	1788.29
360.701	1803.2
360.924	1815.4
361.147	1828.31
361.37	1842.18
361.593	1856.02
361.816	1871.38
362.039	1885.42
362.262	1899.93
362.485	1914.62
362.708	1929.49
362.931	1943.75
363.154	1956.35
363.377	1970.08
363.599	1982.88
363.822	1995.53
364.045	2011.88
364.268	2025.02
364.491	2038.71
364.714	2050.71
364.936	2066.42
365.159	2079.37
365.382	2093.48
365.605	2108.71
365.828	2124.78
366.05	2140.53
366.273	2157.11
366.496	2168.98
366.718	2184.89
366.941	2202.98
367.164	2220.53
367.386	2235.35
367.609	2251.95
367.832	2267.57
368.054	2286.31
368.277	2301
368.5	2318.84
368.722	2332.88
368.945	2351.46
369.167	2365.49
369.39	2378.75
369.612	2396.18
369.835	2415.29
370.057	2430.64
370.28	2447.48
370.502	2464.17
370.725	2482.33
370.947	2498.49
371.169	2515.95
371.392	2533.75
371.614	2550.69
371.837	2569.15
372.059	2585.62
372.281	2600.98
372.504	2617.31
372.726	2635.8
372.948	2652.09
373.171	2669.44
373.393	2685.55
373.615	2703.84
373.837	2721
374.06	2741.44
374.282	2761.06
374.504	2777.77
374.726	2795.91
374.948	2819.06
375.17	2837.02
375.393	2854.17
375.615	2874.71
375.837	2896.89
376.059	2917.64
376.281	2935.26
376.503	2956.31
376.725	2976.46
376.947	2997.4
377.169	3017.46
377.391	3036.97
377.613	3059.37
377.835	3083.11
378.057	3104.09
378.279	3123.29
378.501	3145.24
378.723	3167.44
378.945	3186.31
379.167	3209.15
379.389	3231.08
379.611	3255.98
379.833	3277.06
380.054	3299.31
380.276	3323.37
380.498	3346.33
380.72	3370.22
380.942	3393.24
381.163	3419.09
381.385	3448.6
381.607	3469.69
381.829	3495.75
382.05	3518.17
382.272	3544.09
382.494	3569.26
382.716	3593.29
382.937	3618.48
383.159	3643.46
383.381	3667.13
383.602	3694.11
383.824	3716.4
384.045	3745.26
384.267	3771.04
384.488	3798.58
384.71	3825.91
384.932	3850.68
385.153	3875.95
385.375	3903.13
385.596	3931.44
385.818	3962.46
386.039	3989.37
386.261	4014.49
386.482	4043.06
386.703	4071.22
386.925	4100.95
387.146	4128.8
387.368	4160.29
387.589	4190.37
387.81	4218.55
388.032	4247
388.253	4278.98
388.474	4307.51
388.696	4339.51
388.917	4369.4
389.138	4400.49
389.359	4430.06
389.581	4459.24
389.802	4486.73
390.023	4516.55
390.244	4550.6
390.465	4580.37
390.687	4605.55
390.908	4635.8
391.129	4668.77
391.35	4699.11
391.571	4729.22
391.792	4758.89
392.013	4792.88
392.234	4827.71
392.455	4861.55
392.677	4891.08
392.898	4928.95
393.119	4961.26
393.34	4995.48
393.561	5025.37
393.782	5059.55
394.003	5091.8
394.223	5129.26
394.444	5159.28
394.665	5192.78
394.886	5228.42
395.107	5264.93
395.328	5296.06
395.549	5334.55
395.77	5367
395.99	5402.97
396.211	5435.09
396.432	5469.68
396.653	5500.17
396.874	5536.78
397.094	5569.49
397.315	5600.62
397.536	5628.17
397.757	5661.13
397.977	5691
398.198	5727.46
398.419	5762.15
398.639	5796.97
398.86	5832.98
399.081	5866.35
399.301	5898.86
399.522	5938.08
399.742	5971.17
399.963	6007.44
400.184	6042.11
400.404	6076.93
400.625	6107.38
400.845	6142.68
401.066	6175.44
401.286	6208.28
401.507	6245.29
401.727	6279.49
401.948	6313.08
402.168	6352.11
402.388	6392.57
402.609	6429.51
402.829	6465.66
403.05	6503.68
403.27	6537.35
403.49	6578.11
403.711	6615.71
403.931	6652.57
404.151	6688.13
404.372	6720.6
404.592	6758.17
404.812	6789.86
405.032	6824.09
405.253	6855.2
405.473	6893.75
405.693	6931.22
405.913	6963.24
406.133	6997.26
406.353	7036.02
406.574	7074.02
406.794	7111.09
407.014	7142.28
407.234	7178.48
407.454	7209.24
407.674	7251.88
407.894	7286.02
408.114	7321.06
408.334	7358.55
408.554	7399.26
408.774	7433.48
408.994	7471.68
409.214	7510.8
409.434	7553.55
409.654	7594
409.874	7640.64
410.094	7677
410.314	7719.8
410.534	7757.48
410.754	7795.33
410.974	7828.8
411.193	7865.95
411.413	7904.28
411.633	7940.4
411.853	7973.53
412.073	8013.11
412.292	8050.08
412.512	8088.29
412.732	8123.57
412.952	8167.26
413.171	8209.33
413.391	8254.51
413.611	8300.84
413.831	8343.37
414.05	8385.17
414.27	8427.6
414.489	8468.75
414.709	8513.68
414.929	8554.75
415.148	8597.28
415.368	8638.26
415.587	8678.75
415.807	8716.6
416.026	8757.18
416.246	8800.93
416.465	8844.58
416.685	8888.98
416.904	8931.2
417.124	8969.84
417.343	9017.13
417.563	9060.93
417.782	9104.82
418.002	9155.31
418.221	9200.38
418.44	9238.71
418.66	9280.69
418.879	9323.11
419.098	9364.69
419.318	9410.64
419.537	9458.55
419.756	9502.2
419.976	9542.42
420.195	9587.4
420.414	9624.24
420.633	9668.78
420.853	9713.22
421.072	9756.48
421.291	9801.95
421.51	9849.93
421.729	9887.38
421.948	9931.26
422.168	9976
422.387	10022.2
422.606	10060.53
422.825	10107.91
423.044	10152.78
423.263	10198.22
423.482	10244.49
423.701	10287.2
423.92	10328.75
424.139	10377.66
424.358	10417.09
424.577	10460.08
424.796	10504.75
425.015	10553.64
425.234	10595.6
425.453	10641.62
425.672	10689.4
425.891	10733.33
426.11	10778.02
426.328	10821.95
426.547	10869.06
426.766	10914.6
426.985	10962.17
427.204	11009.44
427.422	11056.86
427.641	11105.31
427.86	11147.84
428.079	11194.62
428.297	11244.13
428.516	11297.75
428.735	11349.29
428.954	11396.24
429.172	11446.89
429.391	11495.31
429.61	11547.04
429.828	11600.48
430.047	11648.38
430.265	11701.95
430.484	11745.77
430.703	11791.49
430.921	11833.98
431.14	11879.75
431.358	11928.55
431.577	11974.09
431.795	12019.02
432.014	12067.04
432.232	12105.66
432.451	12154.68
432.669	12204.82
432.887	12250.51
433.106	12298.93
433.324	12351.35
433.543	12402.89
433.761	12453.11
433.979	12500.31
434.198	12548.95
434.416	12595.46
434.634	12645.93
434.853	12694.26
435.071	12738.73
435.289	12791.17
435.507	12831.13
435.726	12868.77
435.944	12909.33
436.162	12953.84
436.38	13002.51
436.598	13049.44
436.817	13088.71
437.035	13133.69
437.253	13178.98
437.471	13225.26
437.689	13270.6
437.907	13324.57
438.125	13383.55
438.343	13432.17
438.561	13476.69
438.78	13522.69
438.998	13572.73
439.216	13629.73
439.434	13670.77
439.652	13719.55
439.869	13764.97
440.087	13817.53
440.305	13867.46
440.523	13908.64
440.741	13959.8
440.959	14006.38
441.177	14058.55
441.395	14104.93
441.613	14151
441.831	14201.64
442.048	14250.02
442.266	14299.69
442.484	14343.91
442.702	14395
442.919	14443.18
443.137	14491.17
443.355	14542.98
443.573	14589.4
443.79	14639.82
444.008	14690.64
444.226	14743.15
444.443	14785.58
444.661	14832.62
444.879	14882.86
445.096	14929.68
445.314	14980.33
445.532	15029.89
445.749	15085.44
445.967	15134.57
446.184	15178.64
446.402	15225.35
446.619	15273.66
446.837	15323.42
447.054	15365.31
447.272	15415.49
447.489	15458.48
447.707	15505.2
447.924	15547.86
448.141	15589.24
448.359	15640.68
448.576	15692.33
448.794	15735.51
449.011	15787.91
449.228	15839.49
449.446	15896.89
449.663	15936.84
449.88	15987.31
450.098	16035.06
450.315	16085.02
450.532	16129.91
450.749	16175.49
450.967	16219.68
451.184	16275.88
451.401	16325.33
451.618	16368.37
451.835	16412.04
452.052	16468.84
452.27	16519.57
452.487	16572.28
452.704	16623.42
452.921	16677.8
453.138	16727.29
453.355	16778.08
453.572	16824.51
453.789	16867.31
454.006	16919.55
454.223	16968.48
454.44	17014.46
454.657	17058.64
454.874	17105.15
455.091	17148.97
