Data from test1_MAYP1115451__36__10-14-49-995.txt Node

Date: Wed Jun 12 10:14:49 MDT 2024
User: Modes Lab
Spectrometer: MAYP111545
Trigger mode: 0
Integration Time (sec): 8.000000E-3
Scans to average: 5
Electric dark correction enabled: true
Nonlinearity correction enabled: false
Boxcar width: 5
XAxis mode: Wavelengths
Number of Pixels in Spectrum: 2068
>>>>>Begin Spectral Data<<<<<
165.214	164.7
165.449	164.64
165.683	174.34
165.918	182.93
166.152	189.29
166.387	193.68
166.621	125.58
166.856	164.34
167.09	183.36
167.325	206.99
167.559	222.54
167.794	237.54
168.028	246.34
168.263	247.03
168.497	246.68
168.732	247.96
168.966	248.99
169.2	250.38
169.435	251.94
169.669	252.96
169.903	255.27
170.138	257.74
170.372	258.38
170.606	258.81
170.841	260.78
171.075	263.65
171.309	264.81
171.544	266.83
171.778	269.07
172.012	270.83
172.246	273.16
172.48	274.56
172.715	276.08
172.949	278.68
173.183	280.83
173.417	282.94
173.651	283.63
173.885	285.36
174.119	286.56
174.354	286.65
174.588	286.7
174.822	286.96
175.056	286.54
175.29	286.83
175.524	285.7
175.758	285.58
175.992	285.05
176.226	284.52
176.46	284.25
176.694	285.45
176.928	285.83
177.162	287.32
177.396	288.25
177.63	290.18
177.864	291.36
178.097	293.19
178.331	293.25
178.565	294.32
178.799	295.54
179.033	296.21
179.267	296.61
179.5	297.61
179.734	297.27
179.968	297.81
180.202	298.1
180.436	299.01
180.669	299.96
180.903	301.41
181.137	301.74
181.371	303.14
181.604	304.03
181.838	304.65
182.072	305.94
182.305	306.9
182.539	308.78
182.772	310.1
183.006	311.58
183.24	312.39
183.473	316.47
183.707	318.68
183.94	319.65
184.174	321.59
184.408	323.61
184.641	325.14
184.875	326.94
185.108	327.74
185.342	329.18
185.575	329.68
185.808	330.72
186.042	329.36
186.275	329.76
186.509	330.81
186.742	331.92
186.976	332.43
187.209	333.76
187.442	334.94
187.676	336.23
187.909	337.98
188.142	339.27
188.376	339.99
188.609	341.19
188.842	343.18
189.076	345.68
189.309	346.61
189.542	348.74
189.775	350.65
190.009	353.12
190.242	353.27
190.475	355.14
190.708	356.14
190.941	358.18
191.174	360.08
191.408	361.45
191.641	362.21
191.874	363.92
192.107	366.34
192.34	368.16
192.573	368.87
192.806	371.7
193.039	371.94
193.272	373.99
193.505	376.74
193.738	378.87
193.971	381.21
194.204	382.87
194.437	386.05
194.67	386.38
194.903	388.19
195.136	391.1
195.369	393.25
195.602	395.7
195.835	398.19
196.068	399.65
196.301	399.9
196.533	401.92
196.766	403.85
196.999	404.94
197.232	407.14
197.465	408.81
197.698	409.96
197.93	412.01
198.163	412.9
198.396	414.88
198.629	416.99
198.861	419.92
199.094	420.85
199.327	424.39
199.559	425.59
199.792	428.58
200.025	431.23
200.257	433.79
200.49	436.38
200.723	439.98
200.955	441.74
201.188	444.34
201.42	446.59
201.653	448.96
201.886	450.16
202.118	452.87
202.351	454.72
202.583	456.32
202.816	458.99
203.048	461.03
203.281	462.56
203.513	465.72
203.745	468.27
203.978	471.19
204.21	473.92
204.443	476.52
204.675	480.07
204.907	483.16
205.14	485.28
205.372	488.63
205.605	490.65
205.837	493.1
206.069	494.48
206.302	496.39
206.534	498.7
206.766	500.59
206.998	503.79
207.231	505.19
207.463	506.78
207.695	508.98
207.927	510.18
208.159	511.85
208.392	513.99
208.624	517.38
208.856	518.88
209.088	519.78
209.32	523.76
209.552	524.85
209.784	527.36
210.017	529.28
210.249	531.48
210.481	533.36
210.713	536.5
210.945	538.72
211.177	540.28
211.409	542.76
211.641	545.58
211.873	545.01
212.105	547.07
212.337	548.27
212.569	550.45
212.801	552.38
213.033	553.85
213.264	555.61
213.496	558.43
213.728	560.68
213.96	562.56
214.192	564.19
214.424	567.07
214.656	569.68
214.887	571.96
215.119	574.38
215.351	576.41
215.583	578.68
215.815	579.07
216.046	580.21
216.278	581.1
216.51	583.59
216.741	585.1
216.973	588.03
217.205	588.96
217.436	591.16
217.668	594.12
217.9	595.43
218.131	596.28
218.363	597.7
218.595	599.63
218.826	601.48
219.058	602.7
219.289	605.23
219.521	605.21
219.752	606.92
219.984	607.05
220.215	605.68
220.447	607.19
220.678	608.05
220.91	610.08
221.141	609.79
221.373	611.3
221.604	613.27
221.836	614.16
222.067	615.63
222.298	615.98
222.53	617.65
222.761	619.56
222.993	620.83
223.224	622.98
223.455	624.52
223.686	625.96
223.918	626.5
224.149	626.83
224.38	626.05
224.612	625.3
224.843	627.12
225.074	627.01
225.305	626.5
225.536	626.74
225.768	626.87
225.999	627.38
226.23	628.38
226.461	629.19
226.692	628.96
226.923	631.96
227.155	635.05
227.386	635.61
227.617	637.25
227.848	637.79
228.079	638.45
228.31	639.19
228.541	639.74
228.772	639.16
229.003	639.1
229.234	637.79
229.465	635.19
229.696	634.32
229.927	633.63
230.158	633.43
230.389	634.18
230.62	634.39
230.85	632.16
231.081	630.88
231.312	631.68
231.543	632.19
231.774	632.56
232.005	633.58
232.236	633.88
232.466	634.25
232.697	634.61
232.928	634.39
233.159	634.88
233.389	637.16
233.62	639.72
233.851	640.96
234.082	640.45
234.312	641.68
234.543	642.34
234.774	640.74
235.004	640.43
235.235	640.18
235.466	640.19
235.696	640.5
235.927	639.41
236.157	637.72
236.388	635.56
236.618	636.96
236.849	636.45
237.08	636.56
237.31	638.03
237.541	636.98
237.771	635.9
238.002	635.32
238.232	633.54
238.463	634.27
238.693	635.21
238.923	635.9
239.154	634.39
239.384	635.05
239.615	634.9
239.845	633.01
240.075	632.98
240.306	633.79
240.536	633.3
240.766	633.45
240.997	631.98
241.227	630.03
241.457	629.79
241.687	628.99
241.918	628.43
242.148	627.39
242.378	628.23
242.608	627.61
242.839	626.61
243.069	625.48
243.299	625.41
243.529	627.16
243.759	626.32
243.989	625.99
244.22	625.07
244.45	623.27
244.68	623.23
244.91	623.47
245.14	624.03
245.37	624.68
245.6	625.7
245.83	624.58
246.06	621.7
246.29	622.28
246.52	621.83
246.75	622.52
246.98	623.94
247.21	622.83
247.44	621.01
247.67	618.94
247.9	617.05
248.13	616.94
248.359	616.36
248.589	616.25
248.819	615.05
249.049	613.14
249.279	611.5
249.509	609.7
249.738	609.45
249.968	608.99
250.198	609.08
250.428	608.38
250.657	608.18
250.887	609.23
251.117	609.74
251.347	609.23
251.576	609.03
251.806	609.59
252.036	608.63
252.265	608.01
252.495	607.41
252.725	606.43
252.954	606.67
253.184	604.12
253.413	601.23
253.643	599.96
253.873	599.19
254.102	600.27
254.332	598.92
254.561	598.43
254.791	597.65
255.02	597.41
255.25	598.52
255.479	596.65
255.708	596.41
255.938	596.52
256.167	596.43
256.397	595.18
256.626	592.87
256.856	592.28
257.085	592.9
257.314	591.74
257.544	590.34
257.773	588.74
258.002	588.36
258.232	587.99
258.461	586.59
258.69	586.36
258.919	587.07
259.149	585.58
259.378	584.38
259.607	581.88
259.836	582.54
260.065	583.43
260.295	582.25
260.524	582.25
260.753	581.39
260.982	580.7
261.211	579.23
261.44	578.34
261.669	578.34
261.899	578.36
262.128	577.74
262.357	575.63
262.586	574.08
262.815	573.92
263.044	573.45
263.273	576.19
263.502	576.07
263.731	575.54
263.96	574.14
264.189	572.25
264.418	571.23
264.646	571.21
264.875	570.68
265.104	569.67
265.333	568.25
265.562	566.68
265.791	561.39
266.02	560.05
266.249	558.54
266.477	556.58
266.706	557.54
266.935	556.27
267.164	555.81
267.393	556.19
267.621	555.27
267.85	553.34
268.079	553.41
268.307	553.88
268.536	553.74
268.765	553.76
268.993	553.83
269.222	553.14
269.451	553.01
269.679	551.99
269.908	551.43
270.137	550.32
270.365	551.47
270.594	551.65
270.822	552.48
271.051	552.36
271.279	552.5
271.508	553.83
271.736	554.07
271.965	554.14
272.193	554.5
272.422	555.28
272.65	556.7
272.879	557.07
273.107	555.7
273.336	553.9
273.564	553.27
273.792	552.98
274.021	551.72
274.249	550.52
274.477	549.68
274.706	549.03
274.934	546.28
275.162	544.54
275.391	542.74
275.619	541.1
275.847	540.65
276.075	540.18
276.304	537.99
276.532	536.34
276.76	535.5
276.988	533.85
277.216	533.21
277.445	532.47
277.673	531.9
277.901	531.41
278.129	532.16
278.357	530.74
278.585	529.52
278.813	529.21
279.041	528.28
279.269	527.03
279.497	528.16
279.725	526.38
279.954	526.72
280.182	525.58
280.41	524.59
280.637	524.07
280.865	524.47
281.093	524.56
281.321	523.99
281.549	525.36
281.777	525.45
282.005	523.5
282.233	523.92
282.461	523.43
282.689	523.99
282.916	524.58
283.144	524.25
283.372	523.85
283.6	522.18
283.828	521.7
284.055	521.14
284.283	521.01
284.511	520.1
284.739	519.34
284.966	519.38
285.194	517.58
285.422	516.67
285.649	514.36
285.877	512.47
286.105	512.43
286.332	513.05
286.56	512.74
286.788	512.78
287.015	513.08
287.243	512.08
287.47	510.78
287.698	510.36
287.925	510.12
288.153	510.99
288.381	511.59
288.608	511.48
288.836	510.14
289.063	508.23
289.29	507.01
289.518	506.83
289.745	507.21
289.973	506.72
290.2	507.52
290.428	506.48
290.655	504.85
290.882	504.18
291.11	503.87
291.337	503.03
291.564	502.81
291.792	501.83
292.019	501.52
292.246	499.98
292.473	498.92
292.701	498.3
292.928	497.88
293.155	497.79
293.382	497.28
293.61	496.52
293.837	496.19
294.064	496.07
294.291	495.07
294.518	493.34
294.745	492.63
294.972	492.76
295.2	491.38
295.427	490.96
295.654	490.07
295.881	489.01
296.108	488.18
296.335	487.07
296.562	486.96
296.789	486.56
297.016	486.25
297.243	486.38
297.47	484.74
297.697	484.85
297.924	484.21
298.151	484.54
298.378	484.38
298.604	483.56
298.831	483.96
299.058	481.63
299.285	482.07
299.512	482.05
299.739	482.01
299.966	481.74
300.192	481.1
300.419	480.54
300.646	478.79
300.873	477.72
301.099	477.56
301.326	475.99
301.553	476.27
301.78	476.19
302.006	475.99
302.233	473.68
302.46	473.99
302.686	473.39
302.913	472.98
303.14	473.12
303.366	473.92
303.593	473.52
303.819	473.5
304.046	473.34
304.272	472.28
304.499	470.96
304.725	471.9
304.952	470.38
305.179	470.19
305.405	470.99
305.631	471.96
305.858	472.08
306.084	470.72
306.311	470.1
306.537	469.54
306.764	469.56
306.99	469.01
307.216	469.65
307.443	470.36
307.669	469.94
307.895	468.38
308.122	466.54
308.348	465.48
308.574	466.08
308.801	466.81
309.027	467.23
309.253	465.68
309.479	466.14
309.706	465.67
309.932	465.18
310.158	465.1
310.384	464.79
310.61	465.7
310.837	466.1
311.063	466.81
311.289	466.14
311.515	466.36
311.741	467.21
311.967	467.3
312.193	466.19
312.419	466.94
312.645	466.39
312.871	465.81
313.097	465.39
313.323	464.27
313.549	464.5
313.775	465.48
314.001	464.52
314.227	464.1
314.453	464.54
314.679	464.61
314.905	463.68
315.131	464.21
315.357	464.87
315.583	465.43
315.809	466.23
316.034	466.03
316.26	465.78
316.486	467.08
316.712	468.16
316.938	468.54
317.163	468.39
317.389	469.32
317.615	469.19
317.841	470.9
318.066	469.88
318.292	470.72
318.518	470.68
318.743	470.88
318.969	470.38
319.195	470.08
319.42	469.78
319.646	471.63
319.872	472.21
320.097	474.14
320.323	474.38
320.548	476.19
320.774	476.81
320.999	478.18
321.225	479.14
321.45	481.28
321.676	483.58
321.901	485.28
322.127	486.65
322.352	488.21
322.578	489.67
322.803	490.87
323.029	492.28
323.254	493.38
323.479	494.56
323.705	496.38
323.93	497.78
324.155	499.48
324.381	501.38
324.606	503.76
324.831	505.92
325.057	508.08
325.282	511.23
325.507	513.32
325.732	516.81
325.958	519.54
326.183	521.99
326.408	523.78
326.633	527.94
326.858	530.47
327.084	533.61
327.309	535.56
327.534	538.41
327.759	540.87
327.984	544.9
328.209	546.81
328.434	550.45
328.659	552.94
328.884	556.1
329.109	557.72
329.334	560.98
329.559	562.87
329.784	566.68
330.009	569.45
330.234	572.14
330.459	575.05
330.684	579.9
330.909	582.81
331.134	586.85
331.359	591.27
331.584	594.7
331.809	599.39
332.034	603.5
332.259	607.14
332.483	610.88
332.708	615.65
332.933	620.1
333.158	623.43
333.383	628.81
333.607	632.68
333.832	637.39
334.057	643.94
334.282	648.76
334.506	653.99
334.731	659.14
334.956	665.9
335.18	672.41
335.405	677.98
335.63	682.81
335.854	687.74
336.079	694.67
336.303	700.61
336.528	706.21
336.753	711.19
336.977	716.59
337.202	723.28
337.426	730.48
337.651	735.65
337.875	740.96
338.1	748.23
338.324	756.36
338.549	763.32
338.773	771.28
338.997	777.39
339.222	784.72
339.446	793.5
339.671	800.83
339.895	805.76
340.119	813.39
340.344	821.92
340.568	830.36
340.792	837.18
341.017	843.67
341.241	850.99
341.465	856.63
341.689	864.03
341.914	872.47
342.138	880.94
342.362	890.63
342.586	899.01
342.811	906.87
343.035	915.48
343.259	924.54
343.483	935.27
343.707	943.54
343.931	954.43
344.155	965.1
344.38	974.5
344.604	984.56
344.828	992.99
345.052	1002.88
345.276	1012.59
345.5	1020.28
345.724	1028.7
345.948	1038.38
346.172	1049.25
346.396	1059.88
346.62	1070.74
346.844	1079.34
347.068	1088.12
347.292	1098.07
347.515	1108.14
347.739	1121.12
347.963	1132.32
348.187	1141.99
348.411	1153.19
348.635	1163.74
348.859	1172.96
349.082	1182.45
349.306	1192.08
349.53	1202.1
349.754	1215.39
349.977	1226.01
350.201	1235.72
350.425	1247.96
350.649	1259.61
350.872	1269.63
351.096	1279.85
351.32	1292.9
351.543	1305.43
351.767	1318.5
351.99	1331.16
352.214	1338.87
352.438	1350.27
352.661	1360.81
352.885	1372.05
353.108	1384.5
353.332	1396.05
353.555	1407.59
353.779	1417.54
354.002	1429.14
354.226	1441.07
354.449	1452.3
354.673	1467.23
354.896	1478.74
355.12	1490.12
355.343	1502.36
355.566	1514.32
355.79	1526.99
356.013	1538.98
356.237	1552.83
356.46	1566.54
356.683	1579.16
356.907	1591.47
357.13	1602.32
357.353	1616.1
357.576	1630.28
357.8	1641.99
358.023	1653.47
358.246	1664.7
358.469	1677.98
358.693	1690.5
358.916	1701.5
359.139	1714.23
359.362	1727.52
359.585	1739.59
359.808	1752.36
360.031	1764.79
360.255	1778.08
360.478	1792.87
360.701	1806.87
360.924	1820.5
361.147	1833.08
361.37	1847.12
361.593	1860.79
361.816	1875.07
362.039	1889.65
362.262	1904.25
362.485	1918.83
362.708	1934.36
362.931	1948.21
363.154	1964.67
363.377	1977.68
363.599	1991.92
363.822	2005.19
364.045	2018.58
364.268	2031.32
364.491	2047.58
364.714	2060.39
364.936	2073.61
365.159	2085.54
365.382	2101.98
365.605	2113.96
365.828	2130.61
366.05	2146.98
366.273	2161.39
366.496	2177.07
366.718	2194.94
366.941	2209.05
367.164	2226.52
367.386	2245.25
367.609	2261.9
367.832	2277.54
368.054	2293.88
368.277	2310.14
368.5	2327.1
368.722	2344.45
368.945	2362.3
369.167	2377.56
369.39	2394.56
369.612	2407.58
369.835	2420.54
370.057	2439.1
370.28	2454.96
370.502	2471.78
370.725	2488.74
370.947	2503.96
371.169	2519.47
371.392	2535.85
371.614	2551.99
371.837	2568.9
372.059	2590.03
372.281	2608.41
372.504	2625.14
372.726	2640.67
372.948	2659.79
373.171	2675.61
373.393	2691.96
373.615	2710.25
373.837	2727.32
374.06	2749.25
374.282	2767.67
374.504	2784.85
374.726	2802.96
374.948	2821.67
375.17	2841.43
375.393	2859.68
375.615	2879.23
375.837	2903.38
376.059	2925.39
376.281	2943.67
376.503	2959.36
376.725	2978.67
376.947	2996.87
377.169	3018.56
377.391	3036.5
377.613	3056.96
377.835	3076.68
378.057	3099.58
378.279	3120.07
378.501	3139.76
378.723	3162.85
378.945	3187.52
379.167	3208.05
379.389	3233.1
379.611	3257.19
379.833	3280.39
380.054	3304.85
380.276	3331.41
380.498	3357.08
380.72	3380.28
380.942	3405.59
381.163	3429.45
381.385	3453.59
381.607	3480.52
381.829	3502.94
382.05	3527.28
382.272	3553.41
382.494	3580.18
382.716	3603.76
382.937	3623.94
383.159	3646.67
383.381	3673.28
383.602	3703.99
383.824	3729.7
384.045	3756.27
384.267	3785.12
384.488	3810.25
384.71	3837.9
384.932	3862.3
385.153	3889.05
385.375	3918.1
385.596	3945.99
385.818	3971.45
386.039	3995.52
386.261	4023.9
386.482	4049.36
386.703	4077.39
386.925	4106.14
387.146	4134.87
387.368	4161.41
387.589	4189.87
387.81	4220.18
388.032	4251.74
388.253	4281.79
388.474	4311.83
388.696	4338.58
388.917	4372.14
389.138	4398.63
389.359	4427.01
389.581	4456.12
389.802	4488.96
390.023	4517.27
390.244	4546.98
390.465	4573.85
390.687	4603.05
390.908	4633.7
391.129	4667.63
391.35	4698.63
391.571	4731.23
391.792	4763.07
392.013	4794.21
392.234	4827.56
392.455	4860.96
392.677	4892.48
392.898	4925.59
393.119	4957.34
393.34	4987.52
393.561	5019.9
393.782	5050.52
394.003	5085.18
394.223	5116.32
394.444	5148.78
394.665	5178.58
394.886	5214.68
395.107	5247.87
395.328	5280.81
395.549	5315.99
395.77	5351.99
395.99	5385.74
396.211	5420.88
396.432	5455.68
396.653	5492.99
396.874	5529.27
397.094	5567.32
397.315	5601.43
397.536	5636.27
397.757	5675.07
397.977	5706.83
398.198	5741.98
398.419	5774.9
398.639	5812.98
398.86	5847.18
399.081	5881.38
399.301	5918.27
399.522	5952.36
399.742	5984.47
399.963	6019.14
400.184	6049.98
400.404	6088.88
400.625	6122.07
400.845	6163.68
401.066	6192.9
401.286	6229.61
401.507	6263.36
401.727	6294.08
401.948	6329.87
402.168	6365.99
402.388	6407.18
402.609	6443.52
402.829	6482.08
403.05	6522.54
403.27	6551.88
403.49	6590.45
403.711	6623.48
403.931	6662.28
404.151	6700.76
404.372	6734.7
404.592	6771.99
404.812	6796.65
405.032	6831.65
405.253	6861.38
405.473	6891.39
405.693	6930.7
405.913	6961.85
406.133	6994.63
406.353	7034.56
406.574	7067.56
406.794	7102.79
407.014	7138.05
407.234	7176.79
407.454	7211.14
407.674	7252.43
407.894	7290.21
408.114	7322.68
408.334	7362.98
408.554	7402.25
408.774	7432.7
408.994	7476.1
409.214	7517.65
409.434	7556.67
409.654	7597.68
409.874	7641.68
410.094	7676.94
410.314	7717.67
410.534	7755.76
410.754	7794.19
410.974	7830.28
411.193	7870.05
411.413	7903.48
411.633	7938.18
411.853	7978.19
412.073	8017.18
412.292	8050.48
412.512	8094.39
412.732	8129.87
412.952	8171.05
413.171	8212.18
413.391	8256.08
413.611	8297.74
413.831	8341.58
414.05	8385.67
414.27	8423.32
414.489	8462.18
414.709	8511.28
414.929	8549.81
415.148	8593.88
415.368	8635.87
415.587	8679.96
415.807	8725.59
416.026	8764.27
416.246	8807.16
416.465	8850.38
416.685	8896.74
416.904	8942.19
417.124	8978.58
417.343	9022.67
417.563	9068.94
417.782	9111.87
418.002	9156.45
418.221	9196.3
418.44	9242.74
418.66	9283.61
418.879	9320.48
419.098	9360.9
419.318	9407.16
419.537	9453.07
419.756	9495.25
419.976	9533.1
420.195	9580.48
420.414	9624.58
420.633	9668.74
420.853	9715.65
421.072	9763.14
421.291	9810.27
421.51	9852.21
421.729	9897.07
421.948	9941.81
422.168	9985.87
422.387	10038.34
422.606	10079.27
422.825	10118.27
423.044	10165.83
423.263	10211.34
423.482	10253.39
423.701	10299.07
423.92	10347.68
424.139	10392.16
424.358	10438.07
424.577	10484.81
424.796	10523.94
425.015	10570.18
425.234	10614.38
425.453	10655.94
425.672	10700.25
425.891	10742.96
426.11	10788.52
426.328	10833.23
426.547	10879.88
426.766	10928.21
426.985	10973.72
427.204	11021.23
427.422	11067.18
427.641	11119.74
427.86	11168.38
428.079	11212.36
428.297	11262.96
428.516	11311.19
428.735	11361.32
428.954	11407.79
429.172	11457.81
429.391	11508.48
429.61	11552.36
429.828	11600.68
430.047	11647.07
430.265	11696.79
430.484	11748.56
430.703	11795.98
430.921	11844.28
431.14	11885.99
431.358	11930.14
431.577	11970.03
431.795	12014.9
432.014	12066.87
432.232	12111.74
432.451	12159.03
432.669	12202.34
432.887	12246.47
433.106	12294.7
433.324	12341.16
433.543	12394.52
433.761	12446.07
433.979	12498.16
434.198	12546.25
434.416	12593.81
434.634	12643.52
434.853	12688.9
435.071	12739.41
435.289	12789.28
435.507	12835.83
435.726	12879.03
435.944	12922.28
436.162	12965.78
436.38	13006.85
436.598	13051.36
436.817	13096.63
437.035	13143.63
437.253	13196.39
437.471	13245.08
437.689	13289.79
437.907	13337.41
438.125	13386.1
438.343	13432.18
438.561	13482.25
438.78	13536.59
438.998	13587.48
439.216	13638.41
439.434	13684.58
439.652	13731.07
439.869	13774.12
440.087	13821.21
440.305	13870.36
440.523	13923.03
440.741	13973.78
440.959	14025.96
441.177	14069.85
441.395	14120.41
441.613	14167.38
441.831	14218.5
442.048	14261.59
442.266	14310.96
442.484	14362.76
442.702	14415.28
442.919	14464.85
443.137	14512.14
443.355	14556.98
443.573	14606.92
443.79	14647.41
444.008	14694.07
444.226	14744.85
444.443	14795.7
444.661	14842.32
444.879	14889.32
445.096	14934.52
445.314	14980.63
445.532	15030.39
445.749	15077.43
445.967	15128.54
446.184	15180.01
446.402	15227.54
446.619	15268.67
446.837	15317.05
447.054	15366.54
447.272	15407.39
447.489	15454.19
447.707	15501.56
447.924	15547.96
448.141	15597.47
448.359	15642.7
448.576	15690.99
448.794	15742.63
449.011	15799.19
449.228	15842.88
449.446	15890.52
449.663	15946.12
449.88	15992.99
450.098	16039.05
450.315	16088.65
450.532	16136.16
450.749	16182.72
450.967	16227.79
451.184	16277.27
451.401	16323.18
451.618	16379.14
451.835	16429.41
452.052	16479.23
452.27	16529.65
452.487	16580.83
452.704	16629.99
452.921	16680.72
453.138	16732.16
453.355	16786.21
453.572	16833.25
453.789	16879.79
454.006	16925.74
454.223	16973.85
