Data from test1_MAYP1115451__70__10-15-01-378.txt Node

Date: Wed Jun 12 10:15:01 MDT 2024
User: Modes Lab
Spectrometer: MAYP111545
Trigger mode: 0
Integration Time (sec): 8.000000E-3
Scans to average: 5
Electric dark correction enabled: true
Nonlinearity correction enabled: false
Boxcar width: 5
XAxis mode: Wavelengths
Number of Pixels in Spectrum: 2068
>>>>>Begin Spectral Data<<<<<
165.214	163.63
165.449	163.02
165.683	171.98
165.918	180.58
166.152	187.17
166.387	192.15
166.621	123.72
166.856	161.92
167.09	180.57
167.325	203.5
167.559	219.79
167.794	233.95
168.028	241.61
168.263	243.44
168.497	243.81
168.732	243.93
168.966	245.08
169.2	246.42
169.435	247.99
169.669	249.46
169.903	251.79
170.138	253.21
170.372	255.3
170.606	256.86
170.841	257.81
171.075	258.72
171.309	261.08
171.544	262.22
171.778	264.7
172.012	265.93
172.246	266.99
172.48	268.73
172.715	271.77
172.949	273.41
173.183	275.24
173.417	276.93
173.651	278.86
173.885	280.06
174.119	281.17
174.354	281.32
174.588	282.13
174.822	283.97
175.056	283.1
175.29	282.37
175.524	281.46
175.758	281.08
175.992	281.75
176.226	281.46
176.46	281.06
176.694	282.48
176.928	283.35
177.162	284.82
177.396	284.33
177.63	286.15
177.864	286.52
178.097	288.15
178.331	290.55
178.565	291.13
178.799	292.79
179.033	294.28
179.267	294.79
179.5	295.46
179.734	296.13
179.968	297.9
180.202	298.86
180.436	300.01
180.669	300.04
180.903	300.06
181.137	301.22
181.371	301.64
181.604	302.06
181.838	302.99
182.072	305.06
182.305	306.01
182.539	306.73
182.772	307.61
183.006	309.08
183.24	309.92
183.473	313.35
183.707	314.15
183.94	315.88
184.174	317.01
184.408	318.19
184.641	318.37
184.875	319.53
185.108	321.52
185.342	322.62
185.575	323.57
185.808	324.57
186.042	323.52
186.275	324.64
186.509	325.44
186.742	327.33
186.976	328.73
187.209	329.75
187.442	330.84
187.676	330.61
187.909	332.28
188.142	333.68
188.376	336.06
188.609	337.1
188.842	339.28
189.076	341.57
189.309	343.19
189.542	344.15
189.775	346.88
190.009	349.3
190.242	352.26
190.475	353.19
190.708	355.12
190.941	357.86
191.174	360.06
191.408	360.77
191.641	362.04
191.874	362.95
192.107	365.13
192.34	366.44
192.573	367.92
192.806	368.92
193.039	371.9
193.272	372.92
193.505	373.42
193.738	375.12
193.971	377.59
194.204	379.01
194.437	380.81
194.67	382.88
194.903	384.12
195.136	385.42
195.369	388.13
195.602	389.04
195.835	391.84
196.068	393.93
196.301	396.04
196.533	397.82
196.766	399.42
196.999	401.79
197.232	404.35
197.465	405.66
197.698	408.13
197.93	409.13
198.163	411.19
198.396	413.12
198.629	415.53
198.861	418.1
199.094	419.95
199.327	423.06
199.559	424.82
199.792	426.44
200.025	430.39
200.257	432.41
200.49	435.39
200.723	438.21
200.955	439.9
201.188	442.73
201.42	444.64
201.653	447.22
201.886	449.48
202.118	451.66
202.351	453.52
202.583	454.99
202.816	457.26
203.048	459.15
203.281	460.52
203.513	462.44
203.745	464.55
203.978	466.62
204.21	467.73
204.443	469.5
204.675	472.75
204.907	475.77
205.14	477.66
205.372	480.48
205.605	484.37
205.837	487.81
206.069	490.52
206.302	490.99
206.534	492.95
206.766	496.22
206.998	499.15
207.231	500.48
207.463	503.17
207.695	505.84
207.927	507.55
208.159	507.88
208.392	509.1
208.624	512.04
208.856	514.7
209.088	516.55
209.32	518.06
209.552	520.24
209.784	522.15
210.017	523.86
210.249	526.02
210.481	529.37
210.713	533.28
210.945	536.02
211.177	537.01
211.409	539.04
211.641	541.26
211.873	544.32
212.105	545.01
212.337	547.17
212.569	548.19
212.801	550.73
213.033	551.68
213.264	551.68
213.496	552.86
213.728	555.08
213.96	558.32
214.192	560.7
214.424	562.37
214.656	565.52
214.887	568.53
215.119	570.55
215.351	571.7
215.583	573.52
215.815	577.17
216.046	579.41
216.278	581.48
216.51	583.81
216.741	585.13
216.973	587.21
217.205	588.62
217.436	590.72
217.668	593.93
217.9	594.77
218.131	596.46
218.363	596.84
218.595	598.5
218.826	599.9
219.058	600.21
219.289	601.52
219.521	602.04
219.752	602.93
219.984	603.33
220.215	603.3
220.447	605.48
220.678	605.48
220.91	606.08
221.141	607.72
221.373	608.81
221.604	609.82
221.836	610.93
222.067	612.33
222.298	611.86
222.53	613.12
222.761	613.7
222.993	614.84
223.224	615.81
223.455	616.93
223.686	617.73
223.918	618.21
224.149	618.73
224.38	620.48
224.612	620.08
224.843	622.75
225.074	622.88
225.305	623.62
225.536	624.21
225.768	625.81
225.999	628.1
226.23	628.75
226.461	630.7
226.692	632.08
226.923	631.53
227.155	635.28
227.386	635.46
227.617	636.12
227.848	636.48
228.079	637.39
228.31	637.55
228.541	637.84
228.772	637.46
229.003	637.21
229.234	637.97
229.465	638.1
229.696	636.02
229.927	635.61
230.158	635.59
230.389	635.92
230.62	636.79
230.85	636.66
231.081	633.92
231.312	633.93
231.543	634.73
231.774	633.92
232.005	633.62
232.236	633.46
232.466	633.32
232.697	633.66
232.928	634.19
233.159	631.59
233.389	630.81
233.62	632.44
233.851	632.68
234.082	630.57
234.312	631.1
234.543	632.28
234.774	632.37
235.004	633.15
235.235	632.95
235.466	632.33
235.696	632.19
235.927	632.41
236.157	632.92
236.388	632.61
236.618	634.08
236.849	632.88
237.08	632.73
237.31	633.28
237.541	633.52
237.771	632.02
238.002	631.12
238.232	631.22
238.463	631.68
238.693	631.22
238.923	630.46
239.154	629.48
239.384	629.97
239.615	629.3
239.845	627.46
240.075	627.15
240.306	628.62
240.536	628.86
240.766	629.39
240.997	629.15
241.227	627.88
241.457	627.72
241.687	627.21
241.918	627.08
242.148	625.66
242.378	626.15
242.608	625.59
242.839	624.52
243.069	623.7
243.299	623.39
243.529	623.66
243.759	623.66
243.989	623.39
244.22	624.93
244.45	623.33
244.68	624.22
244.91	624.66
245.14	623.57
245.37	622.19
245.6	622.48
245.83	622.04
246.06	620.99
246.29	620.99
246.52	620.95
246.75	618.53
246.98	619.01
247.21	618.62
247.44	617.22
247.67	616.21
247.9	616.95
248.13	616.95
248.359	615.5
248.589	613.95
248.819	613.77
249.049	612.79
249.279	612.39
249.509	611.17
249.738	610.48
249.968	609.46
250.198	608.44
250.428	607.3
250.657	606.86
250.887	606.92
251.117	606.5
251.347	604.17
251.576	603.33
251.806	603.04
252.036	602.37
252.265	600.59
252.495	600.17
252.725	600.3
252.954	601.37
253.184	599.24
253.413	598.84
253.643	598.66
253.873	598.37
254.102	597.33
254.332	596.88
254.561	595.75
254.791	596.5
255.02	595.48
255.25	596.1
255.479	593.79
255.708	593.53
255.938	592.28
256.167	591.41
256.397	591.01
256.626	590.92
256.856	589.26
257.085	588.77
257.314	588.12
257.544	588.75
257.773	587.12
258.002	586.86
258.232	586.72
258.461	586.3
258.69	585.59
258.919	585.33
259.149	585.35
259.378	584.61
259.607	584.44
259.836	582.41
260.065	580.64
260.295	580.37
260.524	579.53
260.753	578.35
260.982	577.44
261.211	576.48
261.44	576.42
261.669	574.7
261.899	574.79
262.128	574.15
262.357	573.57
262.586	572.88
262.815	570.92
263.044	571.04
263.273	573.81
263.502	573.75
263.731	572.95
263.96	570.97
264.189	570.35
264.418	568.72
264.646	567.15
264.875	565.95
265.104	565.06
265.333	565.08
265.562	563.88
265.791	560.02
266.02	558.19
266.249	557.93
266.477	557.26
266.706	555.88
266.935	555.02
267.164	553.79
267.393	553.32
267.621	551.24
267.85	550.59
268.079	549.9
268.307	548.93
268.536	548.15
268.765	548.5
268.993	548.12
269.222	547.79
269.451	547.48
269.679	547.97
269.908	548.52
270.137	549.68
270.365	549.73
270.594	548.44
270.822	548.84
271.051	549.1
271.279	548.24
271.508	548.02
271.736	549.26
271.965	549.88
272.193	549.9
272.422	549.88
272.65	549.93
272.879	548.52
273.107	549.06
273.336	548.28
273.564	548.19
273.792	547.39
274.021	547.22
274.249	545.79
274.477	543.93
274.706	543.15
274.934	541.88
275.162	541.42
275.391	540.81
275.619	540.32
275.847	538.42
276.075	537.64
276.304	536.19
276.532	533.66
276.76	532.84
276.988	532.46
277.216	531.99
277.445	530.88
277.673	529.7
277.901	530.19
278.129	529.04
278.357	528.32
278.585	527.32
278.813	527.32
279.041	528.01
279.269	526.97
279.497	525.64
279.725	524.1
279.954	524.04
280.182	523.33
280.41	521.73
280.637	520.02
280.865	519.59
281.093	518.46
281.321	517.48
281.549	516.62
281.777	517.1
282.005	517.95
282.233	518.62
282.461	517.39
282.689	516.35
282.916	515.7
283.144	515.93
283.372	515.42
283.6	515.75
283.828	514.42
284.055	513.88
284.283	512.13
284.511	510.97
284.739	508.64
284.966	508.46
285.194	508.59
285.422	508.28
285.649	508.55
285.877	509.21
286.105	508.77
286.332	509.81
286.56	510.39
286.788	510.7
287.015	511.99
287.243	511.9
287.47	511.82
287.698	510.84
287.925	509.59
288.153	507.64
288.381	506.95
288.608	506.06
288.836	505.28
289.063	504.33
289.29	502.66
289.518	501.15
289.745	500.15
289.973	500.19
290.2	499.86
290.428	500.5
290.655	501.3
290.882	499.86
291.11	499.92
291.337	498.48
291.564	497.5
291.792	498.3
292.019	497.62
292.246	498.46
292.473	496.95
292.701	496.17
292.928	495.39
293.155	494.61
293.382	494.24
293.61	493.26
293.837	493.24
294.064	491.86
294.291	490.62
294.518	489.15
294.745	488.57
294.972	487.68
295.2	487.59
295.427	488.04
295.654	487.46
295.881	487.72
296.108	486.66
296.335	486.44
296.562	486.46
296.789	486.22
297.016	486.84
297.243	485.48
297.47	485.57
297.697	483.82
297.924	482.21
298.151	480.59
298.378	479.17
298.604	478.02
298.831	477.66
299.058	477.52
299.285	477.52
299.512	476.39
299.739	476.19
299.966	474.92
300.192	476.44
300.419	476.41
300.646	476.52
300.873	476.22
301.099	476.82
301.326	475.39
301.553	473.61
301.78	473.86
302.006	472.55
302.233	472.15
302.46	471.5
302.686	470.62
302.913	469.01
303.14	469.19
303.366	469.62
303.593	469.04
303.819	469.01
304.046	470.22
304.272	467.75
304.499	468.19
304.725	468.19
304.952	467.64
305.179	466.57
305.405	466.82
305.631	466.41
305.858	466.06
306.084	465.81
306.311	465.97
306.537	465.68
306.764	466.52
306.99	466.5
307.216	466.62
307.443	468.59
307.669	468.61
307.895	467.93
308.122	466.79
308.348	465.06
308.574	465.01
308.801	465.39
309.027	464.59
309.253	463.86
309.479	463.53
309.706	462.82
309.932	461.33
310.158	460.17
310.384	460.75
310.61	461.39
310.837	461.1
311.063	462.3
311.289	461.01
311.515	461.79
311.741	462.21
311.967	462.22
312.193	462.44
312.419	461.44
312.645	462.52
312.871	462.33
313.097	461.66
313.323	462.22
313.549	461.35
313.775	461.99
314.001	460.84
314.227	461.1
314.453	460.17
314.679	460.53
314.905	461.57
315.131	461.17
315.357	461.95
315.583	462.88
315.809	462.95
316.034	463.61
316.26	463.97
316.486	464.72
316.712	463.79
316.938	465.42
317.163	465.55
317.389	465.7
317.615	466.61
317.841	466.79
318.066	466.59
318.292	466.82
318.518	466.64
318.743	467.04
318.969	467.7
319.195	469.17
319.42	468.99
319.646	469.33
319.872	470.26
320.097	471.52
320.323	471.21
320.548	474.22
320.774	476.72
320.999	478.32
321.225	479.41
321.45	480.3
321.676	481.24
321.901	482.99
322.127	485.02
322.352	486.84
322.578	487.64
322.803	490.59
323.029	489.59
323.254	490.37
323.479	491.13
323.705	492.33
323.93	493.97
324.155	495.41
324.381	497.15
324.606	498.02
324.831	500.32
325.057	501.9
325.282	502.93
325.507	506.37
325.732	509.59
325.958	511.61
326.183	514.66
326.408	516.53
326.633	520.28
326.858	522.72
327.084	525.9
327.309	527.59
327.534	530.92
327.759	534.06
327.984	537.61
328.209	538.53
328.434	542.75
328.659	545.5
328.884	550.04
329.109	552.88
329.334	556.55
329.559	559.95
329.784	563.02
330.009	566.39
330.234	571.41
330.459	574.53
330.684	579.24
330.909	582.06
331.134	585.62
331.359	589.35
331.584	593.13
331.809	595.9
332.034	599.84
332.259	605.24
332.483	608.62
332.708	611.97
332.933	616.08
333.158	620.79
333.383	625.3
333.607	630.37
333.832	635.24
334.057	639.46
334.282	645.61
334.506	650.73
334.731	655.86
334.956	662.61
335.18	667.84
335.405	673.33
335.63	678.99
335.854	684.84
336.079	690.22
336.303	695.21
336.528	700.24
336.753	707.04
336.977	711.7
337.202	717.93
337.426	725.19
337.651	733.24
337.875	739.04
338.1	745.82
338.324	752.59
338.549	760.48
338.773	768.44
338.997	776.44
339.222	782.75
339.446	791.59
339.671	800.19
339.895	806.02
340.119	812.95
340.344	821.39
340.568	830.24
340.792	838.04
341.017	844.53
341.241	851.99
341.465	861.08
341.689	868.86
341.914	875.82
342.138	882.13
342.362	891.59
342.586	897.06
342.811	903.9
343.035	909.95
343.259	918.04
343.483	927.82
343.707	935.64
343.931	944.77
344.155	953.52
344.38	963.64
344.604	974.33
344.828	983.01
345.052	993.62
345.276	1004.24
345.5	1014.75
345.724	1026.68
345.948	1035.17
346.172	1046.92
346.396	1057.01
346.62	1069.41
346.844	1079.55
347.068	1088.22
347.292	1097.04
347.515	1108.77
347.739	1120.37
347.963	1130.13
348.187	1139.3
348.411	1151.15
348.635	1159.39
348.859	1168.86
349.082	1177.92
349.306	1188.41
349.53	1199.59
349.754	1211.75
349.977	1221.79
350.201	1230.99
350.425	1242.55
350.649	1254.42
350.872	1267.17
351.096	1279.52
351.32	1290.48
351.543	1301.53
351.767	1313.82
351.99	1324.82
352.214	1336.42
352.438	1348.26
352.661	1361.17
352.885	1372.52
353.108	1382.52
353.332	1390.53
353.555	1403.13
353.779	1415.48
354.002	1426.97
354.226	1439.82
354.449	1452.66
354.673	1464.12
354.896	1476.84
355.12	1489.22
355.343	1502.82
355.566	1514.52
355.79	1529.59
356.013	1540.39
356.237	1551.37
356.46	1565.55
356.683	1575.88
356.907	1586.08
357.13	1599.26
357.353	1611.13
357.576	1622.9
357.8	1633.72
358.023	1645.92
358.246	1657.61
358.469	1671.97
358.693	1686.46
358.916	1699.44
359.139	1714.61
359.362	1729.1
359.585	1740.68
359.808	1753.52
360.031	1765.12
360.255	1780.9
360.478	1793.86
360.701	1808.53
360.924	1821.06
361.147	1835.42
361.37	1847.08
361.593	1860.06
361.816	1873.48
362.039	1887.33
362.262	1901.92
362.485	1916.19
362.708	1928.42
362.931	1943.68
363.154	1957.21
363.377	1970.97
363.599	1984.62
363.822	1998.73
364.045	2012.86
364.268	2027.59
364.491	2044.77
364.714	2055.48
364.936	2070.62
365.159	2086.06
365.382	2100.3
365.605	2114.41
365.828	2132.5
366.05	2147.22
366.273	2162.19
366.496	2176.33
366.718	2192.95
366.941	2208.84
367.164	2227.32
367.386	2241.46
367.609	2256.15
367.832	2273.01
368.054	2287.97
368.277	2300.5
368.5	2316.28
368.722	2333.39
368.945	2349.82
369.167	2366.22
369.39	2379.1
369.612	2393.9
369.835	2411.42
370.057	2431.01
370.28	2447.28
370.502	2465.24
370.725	2482.01
370.947	2500.37
371.169	2518.28
371.392	2537.44
371.614	2553.17
371.837	2570.17
372.059	2589.92
372.281	2610.19
372.504	2624.81
372.726	2641.15
372.948	2658.93
373.171	2676.37
373.393	2691.97
373.615	2707.01
373.837	2722.55
374.06	2742.08
374.282	2762.28
374.504	2781.92
374.726	2800.3
374.948	2819.84
375.17	2839.88
375.393	2860.32
375.615	2883.13
375.837	2902.3
376.059	2926.17
376.281	2946.77
376.503	2965.41
376.725	2985.28
376.947	3002.12
377.169	3023.28
377.391	3044.48
377.613	3066.26
377.835	3086.46
378.057	3104.79
378.279	3127.68
378.501	3146.9
378.723	3166.48
378.945	3188.06
379.167	3212.92
379.389	3235.82
379.611	3255.24
379.833	3278.95
380.054	3302.68
380.276	3324.97
380.498	3348.81
380.72	3373.13
380.942	3394.24
381.163	3420.75
381.385	3445.62
381.607	3468.15
381.829	3492.77
382.05	3520.37
382.272	3542.86
382.494	3567.24
382.716	3593.13
382.937	3621.06
383.159	3646.97
383.381	3676.72
383.602	3702.39
383.824	3729.33
384.045	3755.39
384.267	3781.33
384.488	3805.92
384.71	3831.77
384.932	3857.32
385.153	3885.77
385.375	3912.57
385.596	3937.88
385.818	3965.1
386.039	3992.39
386.261	4019.22
386.482	4047.3
386.703	4076.35
386.925	4103.68
387.146	4132.3
387.368	4163.32
387.589	4188.64
387.81	4218.95
388.032	4249.15
388.253	4276.95
388.474	4308.3
388.696	4340.24
388.917	4369.39
389.138	4399.52
389.359	4427.64
389.581	4460.48
389.802	4485.62
390.023	4516.1
390.244	4545.75
390.465	4577.04
390.687	4607.59
390.908	4636.53
391.129	4664.61
391.35	4695.66
391.571	4725.66
391.792	4756.06
392.013	4785.92
392.234	4821.68
392.455	4855.92
392.677	4886.84
392.898	4914.9
393.119	4947.84
393.34	4980.39
393.561	5012.37
393.782	5047.02
394.003	5081.13
394.223	5115.44
394.444	5146.5
394.665	5180.13
394.886	5212.39
395.107	5244.02
395.328	5283.68
395.549	5319.61
395.77	5353.7
395.99	5388.68
396.211	5421.1
396.432	5454.72
396.653	5490.21
396.874	5525.99
397.094	5557.82
397.315	5590.73
397.536	5624.79
397.757	5657.75
397.977	5690.42
398.198	5724.84
398.419	5757.66
398.639	5794.55
398.86	5831.02
399.081	5865.82
399.301	5904.75
399.522	5943.77
399.742	5981.53
399.963	6016.53
400.184	6050.32
400.404	6087.77
400.625	6121.28
400.845	6158.61
401.066	6190.7
401.286	6226.35
401.507	6262.1
401.727	6295.75
401.948	6328.37
402.168	6364.92
402.388	6400.13
402.609	6434.9
402.829	6468.79
403.05	6507.12
403.27	6542.33
403.49	6578.53
403.711	6609.5
403.931	6645.39
404.151	6678.04
404.372	6714.81
404.592	6747.28
404.812	6782.72
405.032	6818.33
405.253	6855.93
405.473	6888.75
405.693	6921.22
405.913	6957.55
406.133	6997.24
406.353	7039.42
406.574	7077.33
406.794	7111.82
407.014	7152.33
407.234	7189.81
407.454	7225.72
407.674	7258.97
407.894	7297.79
408.114	7340.46
408.334	7375.39
408.554	7410.12
408.774	7442.59
408.994	7476.37
409.214	7514.44
409.434	7551.37
409.654	7587.86
409.874	7626.66
410.094	7663.7
410.314	7700.59
410.534	7737.99
410.754	7774.62
410.974	7815.82
411.193	7852.17
411.413	7895.72
411.633	7935.88
411.853	7967.35
412.073	8005.95
412.292	8045.99
412.512	8082.72
412.732	8120.41
412.952	8159.13
413.171	8200.22
413.391	8239.53
413.611	8281.35
413.831	8321.06
414.05	8363.75
414.27	8409.24
414.489	8449.3
414.709	8489.52
414.929	8538.17
415.148	8580.99
415.368	8625.64
415.587	8671.68
415.807	8710.82
416.026	8748.92
416.246	8792.26
416.465	8832.21
416.685	8877.17
416.904	8924.5
417.124	8964.57
417.343	9004.64
417.563	9051.32
417.782	9094.52
418.002	9137.64
418.221	9186.35
418.44	9232.64
418.66	9276.21
418.879	9318.99
419.098	9362.1
419.318	9409.84
419.537	9459.5
419.756	9511.1
419.976	9553.42
420.195	9594.64
420.414	9636.62
420.633	9678.13
420.853	9726.66
421.072	9767.37
421.291	9816.55
421.51	9858.46
421.729	9895.48
421.948	9938.5
422.168	9967.95
422.387	10008.82
422.606	10051.28
422.825	10094.26
423.044	10137.41
423.263	10182.57
423.482	10224.1
423.701	10265.15
423.92	10314.19
424.139	10360.59
424.358	10402.7
424.577	10457.62
424.796	10502.66
425.015	10554.86
425.234	10605.48
425.453	10652.44
425.672	10693.59
425.891	10747.08
426.11	10791.97
426.328	10837.08
426.547	10883.32
426.766	10928.99
426.985	10975.08
427.204	11026.64
427.422	11064.04
427.641	11108.66
427.86	11156.93
428.079	11201.81
428.297	11251.28
428.516	11299.88
428.735	11348.61
428.954	11396.52
429.172	11450.15
429.391	11493.39
429.61	11543.84
429.828	11596.12
430.047	11644.55
430.265	11694.19
430.484	11743.7
430.703	11785.46
430.921	11834.46
431.14	11878.01
431.358	11918.86
431.577	11962.46
431.795	12010.13
432.014	12054.7
432.232	12103.46
432.451	12153.82
432.669	12198.41
432.887	12249.13
433.106	12299.33
433.324	12344.95
433.543	12394.81
433.761	12445.66
433.979	12495.97
434.198	12542.66
434.416	12588.42
434.634	12636.28
434.853	12677.7
435.071	12731.5
435.289	12780.75
435.507	12826.06
435.726	12870.53
435.944	12917.26
436.162	12961.86
436.38	13001.93
436.598	13049.7
436.817	13093.28
437.035	13139.08
437.253	13191.21
437.471	13236.01
437.689	13275.46
437.907	13325.44
438.125	13378.17
438.343	13423.66
438.561	13481.44
438.78	13534.62
438.998	13588.17
439.216	13637.19
439.434	13688.19
439.652	13734.01
439.869	13779.9
440.087	13834.26
440.305	13880.12
440.523	13925.61
440.741	13971.64
440.959	14018.55
441.177	14067.02
441.395	14116.24
441.613	14169.02
441.831	14214.1
442.048	14262.57
442.266	14312.28
442.484	14356.24
442.702	14401.37
442.919	14449.61
443.137	14501.19
443.355	14546.82
443.573	14598.33
443.79	14646.86
444.008	14692.04
444.226	14741.81
444.443	14782.59
444.661	14824.92
444.879	14883.46
445.096	14934.12
445.314	14984.26
445.532	15029.99
445.749	15080.39
445.967	15123.1
446.184	15164.15
446.402	15211.01
446.619	15253.68
446.837	15307.73
447.054	15356.21
447.272	15395.33
447.489	15439.59
447.707	15485.46
447.924	15536.57
448.141	15588.01
448.359	15640.86
448.576	15692.59
448.794	15739.66
449.011	15792.64
449.228	15844.13
449.446	15895.02
449.663	15945.99
449.88	15995.33
450.098	16046.77
450.315	16092.15
450.532	16133.04
450.749	16181.9
450.967	16226.42
451.184	16280.5
451.401	16335.08
451.618	16380.93
451.835	16432.75
452.052	16480.72
452.27	16529.48
452.487	16570.57
452.704	16622.1
452.921	16673.22
453.138	16715.79
453.355	16765.75
453.572	16809.06
453.789	16851.57
454.006	16901.1
454.223	16945.01
