Data from ChCl_U_MAYP1115451__6__10-46-53-651.txt Node

Date: Thu Jun 06 10:46:53 MDT 2024
User: Modes Lab
Spectrometer: MAYP111545
Trigger mode: 0
Integration Time (sec): 4.223000E-2
Scans to average: 1
Electric dark correction enabled: true
Nonlinearity correction enabled: false
Boxcar width: 0
XAxis mode: Wavelengths
Number of Pixels in Spectrum: 2068
>>>>>Begin Spectral Data<<<<<
165.214	1010.67
165.449	-182.33
165.683	34.67
165.918	-11.33
166.152	124.67
166.387	212.67
166.621	529.67
166.856	821.67
167.09	905.67
167.325	888.67
167.559	888.67
167.794	868.67
168.028	848.67
168.263	882.67
168.497	864.67
168.732	854.67
168.966	885.67
169.2	871.67
169.435	888.67
169.669	866.67
169.903	920.67
170.138	883.67
170.372	867.67
170.606	893.67
170.841	873.67
171.075	904.67
171.309	908.67
171.544	903.67
171.778	899.67
172.012	869.67
172.246	915.67
172.48	889.67
172.715	922.67
172.949	912.67
173.183	920.67
173.417	937.67
173.651	885.67
173.885	888.67
174.119	925.67
174.354	904.67
174.588	891.67
174.822	916.67
175.056	926.67
175.29	899.67
175.524	937.67
175.758	929.67
175.992	916.67
176.226	885.67
176.46	951.67
176.694	905.67
176.928	916.67
177.162	938.67
177.396	930.67
177.63	909.67
177.864	927.67
178.097	918.67
178.331	913.67
178.565	911.67
178.799	929.67
179.033	957.67
179.267	914.67
179.5	920.67
179.734	936.67
179.968	941.67
180.202	917.67
180.436	906.67
180.669	908.67
180.903	950.67
181.137	962.67
181.371	933.67
181.604	935.67
181.838	940.67
182.072	914.67
182.305	901.67
182.539	922.67
182.772	910.67
183.006	957.67
183.24	901.67
183.473	958.67
183.707	893.67
183.94	943.67
184.174	928.67
184.408	922.67
184.641	1002.67
184.875	941.67
185.108	911.67
185.342	963.67
185.575	945.67
185.808	952.67
186.042	944.67
186.275	959.67
186.509	942.67
186.742	945.67
186.976	946.67
187.209	965.67
187.442	947.67
187.676	932.67
187.909	969.67
188.142	946.67
188.376	982.67
188.609	948.67
188.842	938.67
189.076	959.67
189.309	944.67
189.542	957.67
189.775	932.67
190.009	939.67
190.242	973.67
190.475	949.67
190.708	967.67
190.941	989.67
191.174	980.67
191.408	961.67
191.641	954.67
191.874	987.67
192.107	988.67
192.34	967.67
192.573	977.67
192.806	965.67
193.039	995.67
193.272	1016.67
193.505	993.67
193.738	988.67
193.971	996.67
194.204	963.67
194.437	993.67
194.67	989.67
194.903	972.67
195.136	1013.67
195.369	1018.67
195.602	997.67
195.835	971.67
196.068	957.67
196.301	1023.67
196.533	1017.67
196.766	996.67
196.999	989.67
197.232	986.67
197.465	1002.67
197.698	989.67
197.93	1029.67
198.163	1001.67
198.396	1066.67
198.629	1015.67
198.861	985.67
199.094	1059.67
199.327	998.67
199.559	1035.67
199.792	1020.67
200.025	1027.67
200.257	1029.67
200.49	1067.67
200.723	1002.67
200.955	1015.67
201.188	1048.67
201.42	1065.67
201.653	1054.67
201.886	1057.67
202.118	1066.67
202.351	1071.67
202.583	1077.67
202.816	1041.67
203.048	1086.67
203.281	1110.67
203.513	1059.67
203.745	1088.67
203.978	1069.67
204.21	1098.67
204.443	1084.67
204.675	1082.67
204.907	1091.67
205.14	1111.67
205.372	1085.67
205.605	1098.67
205.837	1099.67
206.069	1114.67
206.302	1147.67
206.534	1111.67
206.766	1140.67
206.998	1180.67
207.231	1181.67
207.463	1141.67
207.695	1153.67
207.927	1165.67
208.159	1141.67
208.392	1186.67
208.624	1169.67
208.856	1192.67
209.088	1195.67
209.32	1185.67
209.552	1201.67
209.784	1232.67
210.017	1188.67
210.249	1219.67
210.481	1241.67
210.713	1252.67
210.945	1245.67
211.177	1242.67
211.409	1277.67
211.641	1250.67
211.873	1251.67
212.105	1290.67
212.337	1291.67
212.569	1292.67
212.801	1321.67
213.033	1339.67
213.264	1347.67
213.496	1387.67
213.728	1397.67
213.96	1436.67
214.192	1433.67
214.424	1479.67
214.656	1562.67
214.887	1584.67
215.119	1655.67
215.351	1672.67
215.583	1730.67
215.815	1869.67
216.046	1870.67
216.278	2005.67
216.51	2081.67
216.741	2145.67
216.973	2369.67
217.205	2491.67
217.436	2707.67
217.668	2843.67
217.9	2997.67
218.131	3253.67
218.363	3496.67
218.595	3780.67
218.826	4043.67
219.058	4277.67
219.289	4509.67
219.521	4842.67
219.752	5241.67
219.984	5632.67
220.215	5997.67
220.447	6462.67
220.678	6693.67
220.91	7268.67
221.141	7739.67
221.373	8213.67
221.604	8696.67
221.836	9061.67
222.067	9793.67
222.298	10225.67
222.53	10816.67
222.761	11330.67
222.993	11971.67
223.224	12492.67
223.455	13047.67
223.686	13733.67
223.918	14346.67
224.149	15063.67
224.38	15597.67
224.612	16291.67
224.843	16850.67
225.074	17540.67
225.305	18175.67
225.536	18869.67
225.768	19524.67
225.999	20106.67
226.23	20869.67
226.461	21539.67
226.692	22202.67
226.923	22781.67
227.155	23387.67
227.386	24047.67
227.617	24619.67
227.848	25317.67
228.079	25965.67
228.31	26624.67
228.541	27226.67
228.772	27621.67
229.003	28213.67
229.234	28995.67
229.465	29460.67
229.696	30079.67
229.927	30625.67
230.158	31270.67
230.389	31717.67
230.62	32463.67
230.85	32901.67
231.081	33592.67
231.312	34060.67
231.543	34800.67
231.774	35307.67
232.005	35829.67
232.236	36295.67
232.466	36742.67
232.697	37352.67
232.928	37959.67
233.159	38482.67
233.389	38970.67
233.62	39442.67
233.851	39909.67
234.082	40244.67
234.312	40781.67
234.543	41290.67
234.774	41891.67
235.004	42123.67
235.235	42268.67
235.466	42745.67
235.696	43300.67
235.927	43374.67
236.157	43871.67
236.388	44270.67
236.618	44973.67
236.849	45215.67
237.08	45315.67
237.31	45725.67
237.541	46260.67
237.771	46654.67
238.002	47020.67
238.232	47172.67
238.463	47487.67
238.693	47843.67
238.923	48272.67
239.154	48681.67
239.384	48770.67
239.615	49563.67
239.845	49514.67
240.075	49625.67
240.306	50168.67
240.536	50310.67
240.766	50438.67
240.997	50552.67
241.227	50911.67
241.457	51186.67
241.687	51291.67
241.918	51561.67
242.148	52073.67
242.378	52181.67
242.608	52130.67
242.839	52743.67
243.069	52701.67
243.299	53318.67
243.529	53137.67
243.759	53330.67
243.989	53213.67
244.22	53832.67
244.45	53839.67
244.68	54275.67
244.91	54235.67
245.14	54413.67
245.37	54557.67
245.6	54630.67
245.83	54714.67
246.06	55118.67
246.29	55143.67
246.52	55428.67
246.75	55052.67
246.98	55489.67
247.21	55442.67
247.44	55448.67
247.67	55612.67
247.9	55730.67
248.13	56130.67
248.359	56015.67
248.589	56311.67
248.819	56536.67
249.049	56270.67
249.279	56458.67
249.509	56470.67
249.738	56607.67
249.968	56624.67
250.198	56627.67
250.428	56529.67
250.657	56701.67
250.887	56719.67
251.117	56916.67
251.347	56805.67
251.576	56973.67
251.806	56976.67
252.036	57038.67
252.265	57038.67
252.495	56979.67
252.725	56942.67
252.954	56978.67
253.184	57079.67
253.413	57076.67
253.643	57036.67
253.873	57068.67
254.102	56858.67
254.332	57108.67
254.561	56971.67
254.791	56831.67
255.02	56878.67
255.25	57000.67
255.479	57133.67
255.708	57230.67
255.938	56994.67
256.167	56984.67
256.397	56791.67
256.626	56662.67
256.856	56734.67
257.085	56615.67
257.314	56666.67
257.544	56502.67
257.773	56506.67
258.002	56131.67
258.232	56222.67
258.461	55912.67
258.69	56313.67
258.919	55915.67
259.149	55999.67
259.378	56104.67
259.607	55990.67
259.836	55934.67
260.065	55910.67
260.295	55824.67
260.524	55738.67
260.753	55655.67
260.982	55524.67
261.211	55581.67
261.44	55336.67
261.669	55307.67
261.899	55218.67
262.128	55103.67
262.357	55263.67
262.586	55195.67
262.815	54947.67
263.044	54669.67
263.273	54791.67
263.502	54712.67
263.731	54671.67
263.96	54121.67
264.189	54313.67
264.418	54290.67
264.646	54042.67
264.875	54025.67
265.104	53681.67
265.333	53765.67
265.562	53784.67
265.791	53566.67
266.02	53691.67
266.249	53443.67
266.477	53676.67
266.706	53326.67
266.935	53109.67
267.164	53137.67
267.393	53088.67
267.621	53145.67
267.85	52822.67
268.079	52927.67
268.307	52746.67
268.536	52913.67
268.765	52615.67
268.993	52622.67
269.222	52772.67
269.451	52378.67
269.679	52469.67
269.908	52309.67
270.137	52336.67
270.365	52354.67
270.594	52084.67
270.822	52287.67
271.051	52197.67
271.279	52375.67
271.508	52238.67
271.736	52389.67
271.965	52196.67
272.193	52207.67
272.422	52255.67
272.65	52186.67
272.879	51983.67
273.107	52194.67
273.336	52108.67
273.564	51999.67
273.792	52030.67
274.021	51919.67
274.249	52055.67
274.477	52094.67
274.706	51928.67
274.934	51866.67
275.162	51845.67
275.391	51929.67
275.619	52006.67
275.847	52254.67
276.075	52039.67
276.304	52048.67
276.532	51996.67
276.76	52082.67
276.988	52048.67
277.216	51938.67
277.445	52191.67
277.673	52151.67
277.901	52290.67
278.129	52294.67
278.357	52152.67
278.585	52070.67
278.813	52253.67
279.041	52041.67
279.269	52377.67
279.497	52491.67
279.725	52310.67
279.954	52540.67
280.182	52487.67
280.41	52550.67
280.637	52608.67
280.865	52373.67
281.093	52539.67
281.321	52612.67
281.549	52569.67
281.777	52679.67
282.005	52468.67
282.233	52643.67
282.461	52716.67
282.689	52374.67
282.916	52566.67
283.144	52792.67
283.372	52819.67
283.6	52665.67
283.828	52596.67
284.055	52929.67
284.283	52794.67
284.511	52834.67
284.739	52747.67
284.966	52833.67
285.194	53074.67
285.422	53233.67
285.649	52913.67
285.877	52980.67
286.105	52928.67
286.332	53058.67
286.56	53161.67
286.788	52905.67
287.015	53098.67
287.243	53098.67
287.47	53110.67
287.698	53038.67
287.925	52955.67
288.153	52798.67
288.381	53040.67
288.608	53090.67
288.836	53172.67
289.063	53449.67
289.29	53448.67
289.518	53240.67
289.745	53139.67
289.973	53371.67
290.2	53249.67
290.428	53359.67
290.655	53124.67
290.882	52972.67
291.11	53375.67
291.337	53127.67
291.564	53390.67
291.792	53395.67
292.019	53432.67
292.246	53347.67
292.473	53211.67
292.701	53186.67
292.928	53473.67
293.155	53354.67
293.382	53392.67
293.61	53278.67
293.837	53242.67
294.064	53138.67
294.291	53557.67
294.518	53461.67
294.745	53529.67
294.972	53350.67
295.2	53447.67
295.427	53143.67
295.654	53223.67
295.881	53205.67
296.108	53102.67
296.335	53205.67
296.562	53189.67
296.789	53197.67
297.016	53075.67
297.243	53344.67
297.47	53441.67
297.697	53167.67
297.924	52900.67
298.151	53024.67
298.378	53239.67
298.604	52756.67
298.831	52671.67
299.058	52591.67
299.285	52634.67
299.512	52668.67
299.739	52814.67
299.966	52704.67
300.192	52491.67
300.419	52689.67
300.646	52563.67
300.873	52181.67
301.099	52356.67
301.326	52177.67
301.553	51975.67
301.78	51844.67
302.006	51822.67
302.233	51832.67
302.46	51554.67
302.686	51737.67
302.913	51444.67
303.14	51440.67
303.366	51245.67
303.593	51270.67
303.819	51378.67
304.046	50956.67
304.272	51062.67
304.499	50977.67
304.725	50779.67
304.952	50767.67
305.179	50818.67
305.405	50703.67
305.631	50558.67
305.858	50558.67
306.084	50280.67
306.311	50338.67
306.537	50066.67
306.764	49877.67
306.99	49994.67
307.216	50115.67
307.443	49863.67
307.669	49586.67
307.895	49573.67
308.122	49483.67
308.348	49444.67
308.574	49348.67
308.801	49025.67
309.027	48964.67
309.253	49109.67
309.479	48699.67
309.706	48626.67
309.932	48463.67
310.158	48256.67
310.384	48554.67
310.61	48068.67
310.837	48196.67
311.063	47706.67
311.289	47972.67
311.515	47595.67
311.741	47596.67
311.967	47322.67
312.193	47365.67
312.419	47262.67
312.645	47160.67
312.871	47135.67
313.097	46926.67
313.323	46695.67
313.549	46664.67
313.775	46725.67
314.001	46216.67
314.227	46287.67
314.453	46143.67
314.679	46122.67
314.905	46010.67
315.131	45740.67
315.357	45762.67
315.583	45530.67
315.809	45365.67
316.034	45187.67
316.26	45224.67
316.486	45018.67
316.712	44969.67
316.938	44852.67
317.163	44727.67
317.389	44721.67
317.615	44309.67
317.841	44277.67
318.066	44170.67
318.292	44170.67
318.518	43870.67
318.743	43987.67
318.969	43739.67
319.195	43523.67
319.42	43326.67
319.646	43552.67
319.872	43405.67
320.097	43203.67
320.323	42974.67
320.548	42861.67
320.774	42684.67
320.999	42886.67
321.225	42522.67
321.45	42483.67
321.676	42317.67
321.901	42120.67
322.127	42056.67
322.352	41988.67
322.578	41983.67
322.803	41628.67
323.029	41696.67
323.254	41621.67
323.479	41401.67
323.705	41340.67
323.93	41351.67
324.155	41000.67
324.381	40741.67
324.606	40902.67
324.831	40880.67
325.057	40736.67
325.282	40766.67
325.507	41002.67
325.732	40468.67
325.958	40236.67
326.183	40464.67
326.408	40307.67
326.633	39912.67
326.858	39896.67
327.084	39796.67
327.309	39832.67
327.534	39544.67
327.759	39664.67
327.984	39580.67
328.209	39464.67
328.434	39198.67
328.659	39425.67
328.884	39089.67
329.109	39123.67
329.334	38802.67
329.559	38691.67
329.784	38993.67
330.009	38858.67
330.234	38692.67
330.459	38643.67
330.684	38348.67
330.909	38218.67
331.134	38233.67
331.359	37937.67
331.584	38020.67
331.809	37780.67
332.034	37737.67
332.259	37639.67
332.483	37778.67
332.708	37552.67
332.933	37789.67
333.158	37311.67
333.383	37136.67
333.607	37150.67
333.832	37209.67
334.057	37024.67
334.282	36883.67
334.506	36784.67
334.731	36752.67
334.956	36603.67
335.18	36713.67
335.405	36704.67
335.63	36375.67
335.854	36548.67
336.079	36248.67
336.303	36116.67
336.528	36386.67
336.753	35936.67
336.977	35907.67
337.202	35809.67
337.426	35627.67
337.651	35879.67
337.875	35537.67
338.1	35374.67
338.324	35380.67
338.549	35181.67
338.773	35291.67
338.997	35184.67
339.222	34955.67
339.446	34902.67
339.671	34859.67
339.895	34759.67
340.119	34618.67
340.344	34613.67
340.568	34670.67
340.792	34425.67
341.017	34486.67
341.241	34222.67
341.465	34258.67
341.689	34077.67
341.914	34090.67
342.138	33952.67
342.362	33945.67
342.586	33771.67
342.811	33653.67
343.035	33667.67
343.259	33575.67
343.483	33340.67
343.707	33290.67
343.931	33215.67
344.155	33302.67
344.38	33115.67
344.604	32879.67
344.828	32635.67
345.052	32852.67
345.276	32586.67
345.5	32522.67
345.724	32691.67
345.948	32554.67
346.172	32538.67
346.396	32279.67
346.62	32288.67
346.844	32176.67
347.068	32267.67
347.292	32053.67
347.515	32094.67
347.739	31858.67
347.963	31806.67
348.187	32009.67
348.411	31729.67
348.635	31508.67
348.859	31540.67
349.082	31451.67
349.306	31314.67
349.53	31175.67
349.754	31055.67
349.977	31044.67
350.201	31038.67
350.425	30704.67
350.649	30813.67
350.872	30617.67
351.096	30594.67
351.32	30432.67
351.543	30356.67
351.767	30354.67
351.99	30394.67
352.214	30265.67
352.438	30087.67
352.661	29890.67
352.885	29829.67
353.108	29691.67
353.332	29738.67
353.555	29632.67
353.779	29510.67
354.002	29258.67
354.226	29417.67
354.449	29332.67
354.673	29368.67
354.896	29213.67
355.12	29222.67
355.343	29013.67
355.566	29005.67
355.79	28909.67
356.013	28722.67
356.237	28694.67
356.46	28584.67
356.683	28549.67
356.907	28313.67
357.13	28353.67
357.353	28488.67
357.576	28205.67
357.8	28162.67
358.023	28021.67
358.246	28143.67
358.469	27652.67
358.693	27805.67
358.916	27682.67
359.139	27689.67
359.362	27640.67
359.585	27580.67
359.808	27277.67
360.031	27357.67
360.255	27365.67
360.478	27102.67
360.701	27096.67
360.924	27141.67
361.147	26987.67
361.37	26985.67
361.593	26808.67
361.816	26695.67
362.039	26796.67
362.262	26793.67
362.485	26820.67
362.708	26808.67
362.931	26389.67
363.154	26392.67
363.377	26229.67
363.599	26190.67
363.822	26174.67
364.045	26152.67
364.268	25989.67
364.491	26020.67
364.714	26135.67
364.936	25931.67
365.159	25992.67
365.382	25881.67
365.605	25818.67
365.828	25836.67
366.05	25867.67
366.273	26096.67
366.496	25645.67
366.718	25853.67
366.941	26002.67
367.164	25867.67
367.386	25739.67
367.609	25859.67
367.832	25592.67
368.054	25764.67
368.277	25552.67
368.5	25573.67
368.722	25276.67
368.945	25154.67
369.167	25267.67
369.39	25013.67
369.612	25006.67
369.835	24989.67
370.057	24614.67
370.28	24722.67
370.502	24731.67
370.725	24651.67
370.947	24536.67
371.169	24557.67
371.392	24452.67
371.614	24642.67
371.837	24343.67
372.059	24497.67
372.281	24420.67
372.504	24265.67
372.726	24348.67
372.948	24201.67
373.171	24267.67
373.393	24331.67
373.615	24287.67
373.837	24358.67
374.06	24120.67
374.282	24185.67
374.504	24123.67
374.726	24329.67
374.948	24376.67
375.17	24540.67
375.393	24434.67
375.615	24418.67
375.837	24280.67
376.059	24340.67
376.281	24150.67
376.503	24202.67
376.725	24164.67
376.947	24273.67
377.169	24314.67
377.391	24288.67
377.613	24483.67
377.835	24659.67
378.057	24543.67
378.279	24619.67
378.501	24781.67
378.723	24809.67
378.945	24917.67
379.167	25209.67
379.389	25151.67
379.611	25122.67
379.833	24797.67
380.054	24625.67
380.276	24455.67
380.498	24552.67
380.72	24759.67
380.942	24767.67
381.163	24524.67
381.385	24415.67
381.607	24174.67
381.829	24441.67
382.05	24357.67
382.272	24674.67
382.494	24771.67
382.716	24855.67
382.937	24865.67
383.159	24647.67
383.381	24472.67
383.602	24378.67
383.824	24453.67
384.045	24369.67
384.267	24485.67
384.488	24477.67
384.71	24615.67
384.932	24656.67
385.153	24344.67
385.375	24114.67
385.596	24277.67
385.818	24285.67
386.039	24328.67
386.261	24494.67
386.482	24565.67
386.703	24563.67
386.925	24626.67
387.146	24773.67
387.368	25134.67
387.589	25324.67
387.81	25376.67
388.032	25468.67
388.253	25296.67
388.474	25465.67
388.696	25557.67
388.917	25415.67
389.138	25021.67
389.359	24604.67
389.581	24359.67
389.802	24442.67
390.023	24460.67
390.244	24394.67
390.465	24546.67
390.687	24597.67
390.908	24730.67
391.129	24875.67
391.35	24698.67
391.571	24926.67
391.792	25154.67
392.013	25382.67
392.234	25682.67
392.455	25876.67
392.677	26468.67
392.898	26488.67
393.119	26628.67
393.34	26269.67
393.561	25918.67
393.782	25673.67
394.003	25525.67
394.223	25474.67
394.444	25573.67
394.665	25805.67
394.886	25712.67
395.107	25523.67
395.328	25532.67
395.549	25288.67
395.77	25210.67
395.99	25171.67
396.211	25345.67
396.432	25533.67
396.653	25671.67
396.874	25852.67
397.094	25816.67
397.315	26067.67
397.536	26233.67
397.757	26658.67
397.977	26793.67
398.198	27132.67
398.419	27427.67
398.639	27468.67
398.86	27313.67
399.081	26958.67
399.301	26666.67
399.522	26389.67
399.742	26346.67
399.963	26113.67
400.184	25851.67
400.404	25805.67
400.625	25701.67
400.845	25708.67
401.066	25892.67
401.286	26156.67
401.507	25709.67
401.727	25532.67
401.948	25544.67
402.168	25602.67
402.388	25562.67
402.609	25801.67
402.829	25338.67
403.05	25495.67
403.27	25527.67
403.49	25561.67
403.711	25845.67
403.931	25899.67
404.151	25861.67
404.372	25931.67
404.592	26145.67
404.812	26298.67
405.032	26640.67
405.253	26707.67
405.473	26918.67
405.693	26824.67
405.913	26675.67
406.133	26357.67
406.353	25940.67
406.574	25442.67
406.794	25500.67
407.014	25438.67
407.234	25135.67
407.454	25176.67
407.674	25221.67
407.894	25091.67
408.114	25392.67
408.334	25512.67
408.554	25653.67
408.774	26005.67
408.994	25828.67
409.214	25544.67
409.434	25682.67
409.654	25699.67
409.874	25981.67
410.094	25873.67
410.314	25753.67
410.534	25480.67
410.754	25270.67
410.974	25265.67
411.193	25308.67
411.413	25402.67
411.633	25494.67
411.853	25489.67
412.073	25665.67
412.292	25977.67
412.512	26345.67
412.732	26397.67
412.952	26431.67
413.171	26502.67
413.391	26307.67
413.611	26541.67
413.831	26190.67
414.05	26004.67
414.27	25633.67
414.489	25710.67
414.709	25816.67
414.929	25896.67
415.148	25786.67
415.368	25721.67
415.587	25877.67
415.807	25615.67
416.026	25887.67
416.246	25586.67
416.465	25916.67
416.685	25736.67
416.904	25570.67
417.124	25648.67
417.343	25592.67
417.563	25605.67
417.782	25837.67
418.002	25741.67
418.221	25541.67
418.44	25603.67
418.66	25821.67
418.879	25849.67
419.098	25844.67
419.318	25817.67
419.537	25936.67
419.756	26011.67
419.976	26018.67
420.195	26256.67
420.414	26548.67
420.633	26868.67
420.853	26905.67
421.072	27265.67
421.291	27644.67
421.51	28123.67
421.729	28539.67
421.948	28497.67
422.168	28262.67
422.387	28105.67
422.606	27794.67
422.825	27540.67
423.044	27834.67
423.263	27962.67
423.482	27899.67
423.701	27885.67
423.92	27355.67
424.139	27147.67
424.358	26751.67
424.577	26844.67
424.796	27031.67
425.015	27115.67
425.234	26941.67
425.453	26960.67
425.672	26432.67
425.891	26229.67
426.11	26066.67
426.328	25832.67
426.547	26124.67
426.766	26204.67
426.985	26674.67
427.204	26885.67
427.422	27826.67
427.641	27934.67
427.86	27511.67
428.079	26925.67
428.297	26499.67
428.516	26565.67
428.735	26667.67
428.954	26973.67
429.172	27188.67
429.391	27642.67
429.61	28163.67
429.828	28583.67
430.047	29130.67
430.265	29077.67
430.484	28985.67
430.703	28799.67
430.921	28389.67
431.14	28180.67
431.358	27800.67
431.577	27092.67
431.795	26706.67
432.014	26580.67
432.232	26291.67
432.451	26163.67
432.669	26461.67
432.887	26737.67
433.106	26686.67
