Data from ChCl_U_MAYP1115451__2__10-46-52-849.txt Node

Date: Thu Jun 06 10:46:52 MDT 2024
User: Modes Lab
Spectrometer: MAYP111545
Trigger mode: 0
Integration Time (sec): 4.223000E-2
Scans to average: 1
Electric dark correction enabled: true
Nonlinearity correction enabled: false
Boxcar width: 0
XAxis mode: Wavelengths
Number of Pixels in Spectrum: 2068
>>>>>Begin Spectral Data<<<<<
165.214	1007
165.449	-185
165.683	37
165.918	-16
166.152	121
166.387	219
166.621	514
166.856	831
167.09	870
167.325	832
167.559	850
167.794	872
168.028	851
168.263	886
168.497	873
168.732	884
168.966	889
169.2	877
169.435	863
169.669	878
169.903	882
170.138	861
170.372	876
170.606	897
170.841	902
171.075	879
171.309	894
171.544	893
171.778	886
172.012	894
172.246	881
172.48	904
172.715	897
172.949	880
173.183	902
173.417	877
173.651	891
173.885	883
174.119	889
174.354	924
174.588	896
174.822	921
175.056	909
175.29	910
175.524	884
175.758	911
175.992	912
176.226	906
176.46	896
176.694	872
176.928	908
177.162	897
177.396	929
177.63	902
177.864	891
178.097	905
178.331	929
178.565	898
178.799	920
179.033	905
179.267	917
179.5	924
179.734	894
179.968	918
180.202	882
180.436	907
180.669	908
180.903	888
181.137	939
181.371	938
181.604	884
181.838	899
182.072	914
182.305	923
182.539	908
182.772	909
183.006	889
183.24	895
183.473	918
183.707	913
183.94	898
184.174	894
184.408	893
184.641	998
184.875	942
185.108	946
185.342	927
185.575	908
185.808	950
186.042	902
186.275	942
186.509	929
186.742	928
186.976	934
187.209	958
187.442	965
187.676	916
187.909	915
188.142	942
188.376	936
188.609	963
188.842	902
189.076	901
189.309	891
189.542	918
189.775	941
190.009	906
190.242	950
190.475	961
190.708	976
190.941	910
191.174	977
191.408	934
191.641	963
191.874	975
192.107	974
192.34	963
192.573	966
192.806	966
193.039	981
193.272	982
193.505	978
193.738	978
193.971	973
194.204	948
194.437	969
194.67	966
194.903	950
195.136	974
195.369	990
195.602	1003
195.835	966
196.068	978
196.301	961
196.533	1000
196.766	971
196.999	976
197.232	977
197.465	997
197.698	976
197.93	978
198.163	992
198.396	1016
198.629	992
198.861	1006
199.094	1012
199.327	1027
199.559	1010
199.792	992
200.025	1001
200.257	1020
200.49	1071
200.723	1005
200.955	1035
201.188	1016
201.42	1062
201.653	1043
201.886	1049
202.118	1046
202.351	1044
202.583	1059
202.816	1051
203.048	1049
203.281	1074
203.513	1050
203.745	1058
203.978	1055
204.21	1082
204.443	1059
204.675	1033
204.907	1052
205.14	1040
205.372	1042
205.605	1099
205.837	1101
206.069	1094
206.302	1099
206.534	1131
206.766	1103
206.998	1152
207.231	1096
207.463	1134
207.695	1109
207.927	1126
208.159	1129
208.392	1124
208.624	1105
208.856	1142
209.088	1158
209.32	1153
209.552	1148
209.784	1166
210.017	1129
210.249	1189
210.481	1201
210.713	1198
210.945	1185
211.177	1217
211.409	1213
211.641	1237
211.873	1249
212.105	1234
212.337	1217
212.569	1249
212.801	1232
213.033	1267
213.264	1306
213.496	1318
213.728	1365
213.96	1368
214.192	1394
214.424	1414
214.656	1462
214.887	1496
215.119	1588
215.351	1597
215.583	1677
215.815	1706
216.046	1813
216.278	1939
216.51	2010
216.741	2137
216.973	2246
217.205	2314
217.436	2518
217.668	2692
217.9	2917
218.131	3064
218.363	3313
218.595	3539
218.826	3845
219.058	4020
219.289	4310
219.521	4684
219.752	5027
219.984	5328
220.215	5758
220.447	6100
220.678	6413
220.91	6804
221.141	7256
221.373	7731
221.604	8200
221.836	8560
222.067	9133
222.298	9618
222.53	10230
222.761	10587
222.993	11283
223.224	11668
223.455	12352
223.686	12946
223.918	13566
224.149	14074
224.38	14774
224.612	15281
224.843	15856
225.074	16542
225.305	16991
225.536	17449
225.768	18238
225.999	18747
226.23	19350
226.461	19995
226.692	20737
226.923	21389
227.155	21904
227.386	22316
227.617	22946
227.848	23634
228.079	24209
228.31	24952
228.541	25344
228.772	25955
229.003	26392
229.234	27143
229.465	27571
229.696	28302
229.927	28784
230.158	29218
230.389	29779
230.62	30150
230.85	30707
231.081	31218
231.312	31753
231.543	32346
231.774	32778
232.005	33441
232.236	33971
232.466	34421
232.697	34939
232.928	35311
233.159	35758
233.389	36285
233.62	36779
233.851	37046
234.082	37622
234.312	37787
234.543	38507
234.774	38845
235.004	39200
235.235	39682
235.466	40072
235.696	40361
235.927	40769
236.157	40850
236.388	41275
236.618	41725
236.849	41916
237.08	42291
237.31	42863
237.541	43209
237.771	43339
238.002	43962
238.232	44060
238.463	44051
238.693	44647
238.923	44662
239.154	45054
239.384	45430
239.615	45808
239.845	46126
240.075	46379
240.306	46471
240.536	46728
240.766	46919
240.997	47089
241.227	47235
241.457	47850
241.687	47900
241.918	48180
242.148	48271
242.378	48752
242.608	48749
242.839	48803
243.069	49140
243.299	49369
243.529	49596
243.759	49799
243.989	49665
244.22	49902
244.45	50132
244.68	50595
244.91	50543
245.14	50729
245.37	50682
245.6	50579
245.83	50963
246.06	51101
246.29	51325
246.52	51247
246.75	51454
246.98	51499
247.21	51739
247.44	51677
247.67	51638
247.9	51626
248.13	51990
248.359	52403
248.589	52260
248.819	52227
249.049	52157
249.279	52299
249.509	52579
249.738	52700
249.968	52438
250.198	52881
250.428	52673
250.657	52762
250.887	52769
251.117	52957
251.347	52586
251.576	52872
251.806	52828
252.036	52726
252.265	52735
252.495	53093
252.725	53006
252.954	53065
253.184	52861
253.413	53228
253.643	53023
253.873	52789
254.102	52995
254.332	53181
254.561	53028
254.791	53103
255.02	52968
255.25	53004
255.479	53365
255.708	52891
255.938	52971
256.167	52745
256.397	52911
256.626	52890
256.856	52909
257.085	52626
257.314	52405
257.544	52625
257.773	52488
258.002	52469
258.232	52309
258.461	51992
258.69	52193
258.919	52128
259.149	51783
259.378	52123
259.607	52048
259.836	51921
260.065	52025
260.295	52045
260.524	51572
260.753	51661
260.982	51723
261.211	51390
261.44	51314
261.669	51217
261.899	51073
262.128	51150
262.357	51236
262.586	51361
262.815	51015
263.044	50624
263.273	50831
263.502	50565
263.731	50426
263.96	50325
264.189	50457
264.418	50381
264.646	50203
264.875	50111
265.104	49918
265.333	49950
265.562	49910
265.791	49909
266.02	49905
266.249	49610
266.477	49739
266.706	49604
266.935	49461
267.164	49212
267.393	49180
267.621	49225
267.85	49092
268.079	48765
268.307	49094
268.536	48932
268.765	48937
268.993	48880
269.222	48864
269.451	48867
269.679	48869
269.908	48593
270.137	48535
270.365	48563
270.594	48707
270.822	48523
271.051	48301
271.279	48528
271.508	48492
271.736	48570
271.965	48355
272.193	48547
272.422	48320
272.65	48383
272.879	48435
273.107	48259
273.336	48449
273.564	48287
273.792	48191
274.021	48409
274.249	48175
274.477	48508
274.706	48147
274.934	48046
275.162	48091
275.391	48223
275.619	48123
275.847	48182
276.075	48161
276.304	48295
276.532	48203
276.76	48234
276.988	48112
277.216	48187
277.445	48348
277.673	48195
277.901	48331
278.129	48167
278.357	48419
278.585	48409
278.813	48515
279.041	48367
279.269	48315
279.497	48521
279.725	48420
279.954	48438
280.182	48681
280.41	48491
280.637	48421
280.865	48735
281.093	48679
281.321	48901
281.549	48777
281.777	48738
282.005	48550
282.233	48791
282.461	48655
282.689	48740
282.916	48703
283.144	48783
283.372	48898
283.6	48886
283.828	48821
284.055	48783
284.283	48716
284.511	48830
284.739	48980
284.966	48917
285.194	48899
285.422	49019
285.649	48745
285.877	49273
286.105	49111
286.332	48900
286.56	49132
286.788	48947
287.015	49161
287.243	49116
287.47	48829
287.698	49164
287.925	49173
288.153	49208
288.381	49161
288.608	49113
288.836	49103
289.063	49331
289.29	49231
289.518	49224
289.745	49224
289.973	49295
290.2	49333
290.428	49105
290.655	49240
290.882	49234
291.11	49305
291.337	49142
291.564	49277
291.792	49477
292.019	49555
292.246	49177
292.473	49239
292.701	49369
292.928	49513
293.155	49572
293.382	49376
293.61	49419
293.837	49421
294.064	49507
294.291	49497
294.518	49300
294.745	49352
294.972	49257
295.2	49390
295.427	49143
295.654	49141
295.881	49245
296.108	49216
296.335	48835
296.562	49116
296.789	48959
297.016	49134
297.243	49068
297.47	49239
297.697	49194
297.924	48973
298.151	48978
298.378	48992
298.604	48964
298.831	48584
299.058	48832
299.285	48788
299.512	48438
299.739	48630
299.966	48561
300.192	48623
300.419	48456
300.646	48124
300.873	48346
301.099	48342
301.326	47799
301.553	48160
301.78	47751
302.006	47785
302.233	47800
302.46	47713
302.686	47699
302.913	47647
303.14	47563
303.366	47409
303.593	47374
303.819	47259
304.046	47051
304.272	47294
304.499	47009
304.725	46836
304.952	46755
305.179	46568
305.405	46707
305.631	46421
305.858	46291
306.084	46374
306.311	46237
306.537	46033
306.764	46150
306.99	45826
307.216	46027
307.443	45637
307.669	45596
307.895	45787
308.122	45451
308.348	45563
308.574	45221
308.801	45379
309.027	45346
309.253	45046
309.479	45027
309.706	44707
309.932	44596
310.158	44495
310.384	44748
310.61	44182
310.837	44394
311.063	44248
311.289	44288
311.515	43871
311.741	43945
311.967	43830
312.193	43773
312.419	43399
312.645	43367
312.871	43373
313.097	43123
313.323	43358
313.549	43221
313.775	42848
314.001	42795
314.227	42479
314.453	42485
314.679	42497
314.905	42362
315.131	42228
315.357	42133
315.583	42045
315.809	41699
316.034	41730
316.26	41384
316.486	41410
316.712	41290
316.938	41091
317.163	41133
317.389	40933
317.615	40920
317.841	40787
318.066	40777
318.292	40459
318.518	40530
318.743	40570
318.969	40047
319.195	40129
319.42	39990
319.646	39960
319.872	39812
320.097	39782
320.323	39719
320.548	39499
320.774	39405
320.999	39274
321.225	39265
321.45	38975
321.676	38941
321.901	38663
322.127	38815
322.352	38500
322.578	38511
322.803	38573
323.029	38190
323.254	38225
323.479	38133
323.705	38064
323.93	37920
324.155	37916
324.381	37807
324.606	37776
324.831	37606
325.057	37520
325.282	37460
325.507	37371
325.732	37326
325.958	37120
326.183	37085
326.408	36965
326.633	36726
326.858	36798
327.084	36689
327.309	36481
327.534	36399
327.759	36445
327.984	36193
328.209	36076
328.434	36278
328.659	35945
328.884	36254
329.109	35845
329.334	35865
329.559	35852
329.784	35471
330.009	35559
330.234	35258
330.459	35385
330.684	35426
330.909	35306
331.134	35003
331.359	34809
331.584	35087
331.809	34785
332.034	34679
332.259	34632
332.483	34780
332.708	34447
332.933	34449
333.158	34257
333.383	34332
333.607	34255
333.832	34153
334.057	33985
334.282	33933
334.506	33733
334.731	33944
334.956	33827
335.18	33731
335.405	33652
335.63	33531
335.854	33258
336.079	33440
336.303	33135
336.528	33113
336.753	32950
336.977	32951
337.202	33005
337.426	32776
337.651	32523
337.875	32771
338.1	32706
338.324	32573
338.549	32290
338.773	32316
338.997	32267
339.222	32103
339.446	32155
339.671	32035
339.895	31748
340.119	31771
340.344	31808
340.568	31613
340.792	31623
341.017	31615
341.241	31552
341.465	31547
341.689	31459
341.914	31283
342.138	31262
342.362	31186
342.586	31091
342.811	30906
343.035	30634
343.259	30791
343.483	30758
343.707	30760
343.931	30499
344.155	30612
344.38	30220
344.604	30127
344.828	30056
345.052	30133
345.276	30046
345.5	29966
345.724	29886
345.948	29832
346.172	29809
346.396	29584
346.62	29598
346.844	29771
347.068	29441
347.292	29510
347.515	29325
347.739	29285
347.963	29206
348.187	29121
348.411	29021
348.635	28774
348.859	29135
349.082	28791
349.306	28689
349.53	28713
349.754	28507
349.977	28250
350.201	28338
350.425	28280
350.649	28050
350.872	28189
351.096	28043
351.32	27950
351.543	27945
351.767	27801
351.99	27849
352.214	27622
352.438	27555
352.661	27501
352.885	27630
353.108	27374
353.332	27302
353.555	27166
353.779	27192
354.002	26970
354.226	26809
354.449	26966
354.673	26540
354.896	26814
355.12	26829
355.343	26538
355.566	26502
355.79	26352
356.013	26317
356.237	26312
356.46	26025
356.683	26224
356.907	26102
357.13	25939
357.353	25968
357.576	25728
357.8	25780
358.023	25587
358.246	25707
358.469	25473
358.693	25512
358.916	25385
359.139	25395
359.362	25259
359.585	25095
359.808	25195
360.031	25058
360.255	25094
360.478	24846
360.701	24780
360.924	24850
361.147	24742
361.37	24616
361.593	24403
361.816	24531
362.039	24533
362.262	24502
362.485	24419
362.708	24458
362.931	24218
363.154	24154
363.377	24056
363.599	23860
363.822	23981
364.045	23882
364.268	23893
364.491	23687
364.714	23652
364.936	23782
365.159	23793
365.382	23637
365.605	23588
365.828	23676
366.05	23660
366.273	23780
366.496	23615
366.718	23643
366.941	23885
367.164	23600
367.386	23689
367.609	23491
367.832	23549
368.054	23380
368.277	23241
368.5	23221
368.722	23253
368.945	23200
369.167	23105
369.39	23171
369.612	22740
369.835	22686
370.057	22736
370.28	22524
370.502	22517
370.725	22432
370.947	22412
371.169	22404
371.392	22435
371.614	22556
371.837	22342
372.059	22371
372.281	22337
372.504	22362
372.726	22214
372.948	22174
373.171	22126
373.393	22172
373.615	22129
373.837	22043
374.06	22087
374.282	21988
374.504	22012
374.726	22128
374.948	22313
375.17	22177
375.393	22353
375.615	22365
375.837	22157
376.059	22056
376.281	22087
376.503	22182
376.725	22149
376.947	22109
377.169	22230
377.391	22308
377.613	22217
377.835	22476
378.057	22442
378.279	22572
378.501	22659
378.723	22622
378.945	22619
379.167	23003
379.389	22963
379.611	22893
379.833	22508
380.054	22296
380.276	22288
380.498	22361
380.72	22561
380.942	22345
381.163	22184
381.385	22147
381.607	22202
381.829	22173
382.05	22480
382.272	22504
382.494	22432
382.716	22728
382.937	22582
383.159	22524
383.381	22346
383.602	22206
383.824	22121
384.045	22316
384.267	22204
384.488	22383
384.71	22303
384.932	22110
385.153	22315
385.375	22236
385.596	22202
385.818	22216
386.039	22236
386.261	22454
386.482	22296
386.703	22218
386.925	22521
387.146	22618
387.368	22881
387.589	22958
387.81	22933
388.032	23126
388.253	23104
388.474	23144
388.696	23079
388.917	23005
389.138	22774
389.359	22645
389.581	22203
389.802	22191
390.023	22278
390.244	22166
390.465	22517
390.687	22442
390.908	22429
391.129	22597
391.35	22521
391.571	22660
391.792	23028
392.013	23057
392.234	23414
392.455	23722
392.677	23973
392.898	24166
393.119	24132
393.34	24104
393.561	23729
393.782	23373
394.003	23206
394.223	23250
394.444	23139
394.665	23356
394.886	23228
395.107	23311
395.328	23069
395.549	22973
395.77	23044
395.99	23076
396.211	23010
396.432	23294
396.653	23160
396.874	23499
397.094	23233
397.315	23584
397.536	23726
397.757	24197
397.977	24436
398.198	24720
398.419	24794
398.639	24982
398.86	24819
399.081	24557
399.301	24170
399.522	24133
399.742	23959
399.963	23602
400.184	23546
400.404	23346
400.625	23341
400.845	23365
401.066	23489
401.286	23618
401.507	23592
401.727	23314
401.948	23220
402.168	23134
402.388	23161
402.609	23366
402.829	23373
403.05	23260
403.27	23134
403.49	23442
403.711	23258
403.931	23380
404.151	23494
404.372	23427
404.592	23721
404.812	23862
405.032	24086
405.253	24291
405.473	24262
405.693	24326
405.913	24058
406.133	23723
406.353	23631
406.574	23414
406.794	22934
407.014	22926
407.234	22833
407.454	22802
407.674	22818
407.894	22872
408.114	23030
408.334	23020
408.554	23441
408.774	23547
408.994	23278
409.214	23265
409.434	23375
409.654	23365
409.874	23350
410.094	23405
410.314	23362
410.534	23129
410.754	23039
410.974	23009
411.193	22957
411.413	23113
411.633	23005
411.853	23278
412.073	23477
412.292	23555
412.512	23798
412.732	24073
412.952	24002
413.171	24095
413.391	23867
413.611	23737
413.831	23623
414.05	23505
414.27	23421
414.489	23286
414.709	23286
414.929	23320
415.148	23140
415.368	23452
415.587	23132
415.807	23408
416.026	23203
416.246	23241
416.465	23277
416.685	23297
416.904	23222
417.124	23164
417.343	23120
417.563	23318
417.782	23334
418.002	23235
418.221	23186
418.44	23331
418.66	23228
418.879	23184
419.098	23469
419.318	23335
419.537	23560
419.756	23872
419.976	23498
420.195	23721
420.414	24092
420.633	24192
420.853	24389
421.072	24794
421.291	24966
421.51	25323
421.729	25628
421.948	25585
422.168	25582
422.387	25371
422.606	25196
422.825	24931
423.044	25020
423.263	25093
423.482	25230
423.701	25122
423.92	24589
424.139	24733
424.358	24362
424.577	24484
424.796	24364
425.015	24450
425.234	24454
425.453	24197
425.672	23909
425.891	23809
426.11	23626
426.328	23504
426.547	23387
426.766	23776
426.985	23974
427.204	24338
427.422	25142
427.641	25126
427.86	24974
428.079	24510
428.297	24014
428.516	23908
428.735	23931
428.954	24370
429.172	24549
429.391	24939
429.61	25499
429.828	26171
430.047	26283
430.265	26112
430.484	26044
430.703	25989
430.921	25734
431.14	25245
431.358	25092
431.577	24609
431.795	24093
432.014	23907
432.232	23743
432.451	23702
432.669	23765
432.887	23964
433.106	24018
433.324	24411
433.543	25410
433.761	26518
433.979	26634
434.198	26226
434.416	25493
434.634	24459
434.853	24272
435.071	24589
435.289	24774
435.507	24729
435.726	24821
435.944	24623
436.162	24750
436.38	24908
436.598	25131
436.817	25049
437.035	25247
437.253	24972
437.471	24756
437.689	24642
437.907	24610
438.125	25030
438.343	25174
438.561	25208
438.78	25430
438.998	25501
439.216	25276
439.434	25213
439.652	25363
439.869	25041
440.087	25059
440.305	24992
440.523	25086
440.741	25550
440.959	25982
441.177	26817
441.395	27707
441.613	27867
441.831	27992
442.048	27374
442.266	27171
442.484	26593
442.702	26395
442.919	26548
443.137	26801
443.355	27078
443.573	27261
443.79	27366
444.008	27279
444.226	27570
444.443	27246
444.661	27190
444.879	27230
445.096	27257
445.314	27171
445.532	27117
445.749	27113
445.967	27060
446.184	27345
446.402	27293
446.619	27687
446.837	27774
447.054	27272
447.272	27165
447.489	27033
447.707	27226
447.924	27057
448.141	27249
448.359	27110
448.576	27212
448.794	27342
449.011	27373
449.228	27597
449.446	27312
449.663	27723
449.88	27463
450.098	27485
450.315	27603
450.532	27400
450.749	27375
450.967	27331
451.184	27269
451.401	27022
451.618	27274
451.835	27378
452.052	27514
452.27	27332
452.487	27562
452.704	27097
452.921	27365
453.138	27264
453.355	27230
453.572	27214
453.789	27122
454.006	27068
454.223	27137
454.44	27139
454.657	27201
454.874	27430
455.091	27501
455.308	27993
455.525	27990
455.742	27746
455.959	27600
456.176	27774
456.393	27379
456.609	27622
456.826	27885
457.043	27845
457.26	28125
457.477	28260
457.693	28296
457.91	28735
458.127	28731
458.344	28897
458.56	28844
458.777	28715
458.994	28604
459.21	28825
459.427	28861
459.644	28892
459.86	28670
460.077	28426
460.294	28367
460.51	28164
460.727	27958
460.943	28169
461.16	28134
461.376	28234
461.593	28098
461.809	27834
462.026	27398
462.242	27531
462.459	27459
462.675	27893
462.892	27756
463.108	28170
463.324	28054
463.541	28643
463.757	28697
463.974	28811
464.19	28916
464.406	28988
464.623	29003
464.839	29310
465.055	29238
465.271	29438
465.488	29254
465.704	29430
465.92	29462
466.136	29244
466.353	29147
466.569	28728
466.785	28338
467.001	28199
467.217	28365
467.433	28315
467.649	28231
467.865	28432
468.082	28444
468.298	28462
468.514	28265
468.73	28306
468.946	28051
469.162	27824
469.378	27785
469.594	27731
469.81	27691
470.026	27595
470.242	27854
470.457	27698
470.673	27751
470.889	27772
471.105	27801
471.321	27975
471.537	28065
471.753	28149
471.968	28342
472.184	28187
472.4	28313
472.616	28616
472.832	28890
473.047	28980
473.263	29249
473.479	29030
473.694	29135
473.91	28956
474.126	29142
474.341	28986
474.557	29033
474.773	29171
474.988	29394
475.204	29567
475.42	29902
475.635	29782
475.851	29733
476.066	29662
476.282	29807
476.497	29718
476.713	29869
476.928	29680
477.144	29649
477.359	29509
477.575	29762
477.79	30006
478.005	30262
478.221	30475
478.436	30288
478.651	30216
478.867	30128
479.082	29961
479.297	30017
479.513	30128
479.728	30414
479.943	30419
480.159	30614
480.374	30794
480.589	30784
480.804	30538
481.019	30512
481.235	30359
481.45	30660
481.665	30847
481.88	30912
482.095	30748
482.31	30754
482.525	30543
482.741	30569
482.956	30708
483.171	30670
483.386	30704
483.601	30950
483.816	30934
484.031	31018
484.246	31328
484.461	31638
484.676	31572
484.891	31853
485.105	32351
485.32	34981
485.535	39886
485.75	44147
485.965	48151
486.18	48165
486.395	44070
486.609	39740
486.824	34997
487.039	32099
487.254	32043
487.469	31768
487.683	31562
487.898	31233
488.113	30885
488.327	30737
488.542	30501
