Data from ChCl_U_MAYP1115451__13__10-46-55-930.txt Node

Date: Thu Jun 06 10:46:55 MDT 2024
User: Modes Lab
Spectrometer: MAYP111545
Trigger mode: 0
Integration Time (sec): 4.223000E-2
Scans to average: 1
Electric dark correction enabled: true
Nonlinearity correction enabled: false
Boxcar width: 0
XAxis mode: Wavelengths
Number of Pixels in Spectrum: 2068
>>>>>Begin Spectral Data<<<<<
165.214	1009.83
165.449	-187.17
165.683	36.83
165.918	-10.17
166.152	124.83
166.387	213.83
166.621	490.83
166.856	816.83
167.09	876.83
167.325	863.83
167.559	870.83
167.794	826.83
168.028	874.83
168.263	856.83
168.497	854.83
168.732	835.83
168.966	895.83
169.2	843.83
169.435	844.83
169.669	860.83
169.903	887.83
170.138	871.83
170.372	874.83
170.606	872.83
170.841	868.83
171.075	882.83
171.309	879.83
171.544	901.83
171.778	864.83
172.012	917.83
172.246	897.83
172.48	919.83
172.715	882.83
172.949	891.83
173.183	880.83
173.417	877.83
173.651	906.83
173.885	893.83
174.119	903.83
174.354	892.83
174.588	893.83
174.822	893.83
175.056	892.83
175.29	887.83
175.524	908.83
175.758	879.83
175.992	879.83
176.226	869.83
176.46	926.83
176.694	890.83
176.928	915.83
177.162	908.83
177.396	899.83
177.63	905.83
177.864	909.83
178.097	917.83
178.331	896.83
178.565	877.83
178.799	900.83
179.033	924.83
179.267	921.83
179.5	885.83
179.734	935.83
179.968	888.83
180.202	909.83
180.436	863.83
180.669	893.83
180.903	905.83
181.137	893.83
181.371	887.83
181.604	899.83
181.838	917.83
182.072	918.83
182.305	905.83
182.539	916.83
182.772	863.83
183.006	925.83
183.24	916.83
183.473	923.83
183.707	916.83
183.94	924.83
184.174	941.83
184.408	900.83
184.641	988.83
184.875	930.83
185.108	932.83
185.342	932.83
185.575	924.83
185.808	931.83
186.042	893.83
186.275	916.83
186.509	912.83
186.742	913.83
186.976	905.83
187.209	925.83
187.442	927.83
187.676	939.83
187.909	909.83
188.142	921.83
188.376	937.83
188.609	921.83
188.842	949.83
189.076	931.83
189.309	884.83
189.542	906.83
189.775	939.83
190.009	929.83
190.242	949.83
190.475	931.83
190.708	919.83
190.941	894.83
191.174	954.83
191.408	967.83
191.641	932.83
191.874	939.83
192.107	981.83
192.34	960.83
192.573	930.83
192.806	955.83
193.039	940.83
193.272	949.83
193.505	963.83
193.738	969.83
193.971	954.83
194.204	941.83
194.437	961.83
194.67	949.83
194.903	957.83
195.136	979.83
195.369	997.83
195.602	973.83
195.835	981.83
196.068	984.83
196.301	981.83
196.533	964.83
196.766	1011.83
196.999	997.83
197.232	957.83
197.465	988.83
197.698	993.83
197.93	1000.83
198.163	989.83
198.396	1002.83
198.629	991.83
198.861	962.83
199.094	989.83
199.327	1000.83
199.559	1004.83
199.792	1022.83
200.025	1013.83
200.257	1021.83
200.49	1034.83
200.723	1007.83
200.955	987.83
201.188	999.83
201.42	1042.83
201.653	1020.83
201.886	1021.83
202.118	1027.83
202.351	1029.83
202.583	1011.83
202.816	1048.83
203.048	1027.83
203.281	1050.83
203.513	1039.83
203.745	1061.83
203.978	1043.83
204.21	1092.83
204.443	1050.83
204.675	1048.83
204.907	1060.83
205.14	1010.83
205.372	1074.83
205.605	1014.83
205.837	1069.83
206.069	1100.83
206.302	1063.83
206.534	1077.83
206.766	1077.83
206.998	1086.83
207.231	1085.83
207.463	1068.83
207.695	1089.83
207.927	1095.83
208.159	1101.83
208.392	1117.83
208.624	1115.83
208.856	1144.83
209.088	1124.83
209.32	1122.83
209.552	1121.83
209.784	1162.83
210.017	1147.83
210.249	1140.83
210.481	1164.83
210.713	1184.83
210.945	1194.83
211.177	1187.83
211.409	1219.83
211.641	1181.83
211.873	1221.83
212.105	1235.83
212.337	1237.83
212.569	1256.83
212.801	1269.83
213.033	1283.83
213.264	1281.83
213.496	1306.83
213.728	1313.83
213.96	1342.83
214.192	1401.83
214.424	1409.83
214.656	1482.83
214.887	1488.83
215.119	1554.83
215.351	1610.83
215.583	1685.83
215.815	1708.83
216.046	1777.83
216.278	1959.83
216.51	1994.83
216.741	2100.83
216.973	2311.83
217.205	2376.83
217.436	2574.83
217.668	2705.83
217.9	2850.83
218.131	3167.83
218.363	3296.83
218.595	3565.83
218.826	3864.83
219.058	4087.83
219.289	4354.83
219.521	4740.83
219.752	4978.83
219.984	5275.83
220.215	5692.83
220.447	6032.83
220.678	6384.83
220.91	6784.83
221.141	7204.83
221.373	7715.83
221.604	8197.83
221.836	8591.83
222.067	9087.83
222.298	9618.83
222.53	9960.83
222.761	10669.83
222.993	11118.83
223.224	11544.83
223.455	12293.83
223.686	12771.83
223.918	13305.83
224.149	13934.83
224.38	14461.83
224.612	14928.83
224.843	15694.83
225.074	16101.83
225.305	16658.83
225.536	17333.83
225.768	17747.83
225.999	18561.83
226.23	19023.83
226.461	19733.83
226.692	20226.83
226.923	20885.83
227.155	21251.83
227.386	21979.83
227.617	22390.83
227.848	23117.83
228.079	23517.83
228.31	24256.83
228.541	24723.83
228.772	25389.83
229.003	25737.83
229.234	26444.83
229.465	26803.83
229.696	27237.83
229.927	27791.83
230.158	28474.83
230.389	28812.83
230.62	29173.83
230.85	29746.83
231.081	30434.83
231.312	30779.83
231.543	31268.83
231.774	31787.83
232.005	32194.83
232.236	32891.83
232.466	33224.83
232.697	33725.83
232.928	34034.83
233.159	34619.83
233.389	35010.83
233.62	35699.83
233.851	35930.83
234.082	36386.83
234.312	36741.83
234.543	37093.83
234.774	37550.83
235.004	37915.83
235.235	38357.83
235.466	38656.83
235.696	39004.83
235.927	39283.83
236.157	39728.83
236.388	40028.83
236.618	40221.83
236.849	40623.83
237.08	40846.83
237.31	41307.83
237.541	41660.83
237.771	42110.83
238.002	42469.83
238.232	42819.83
238.463	42922.83
238.693	43258.83
238.923	43317.83
239.154	43786.83
239.384	44147.83
239.615	44509.83
239.845	44547.83
240.075	44735.83
240.306	44890.83
240.536	44886.83
240.766	45436.83
240.997	45606.83
241.227	45866.83
241.457	46096.83
241.687	46180.83
241.918	46308.83
242.148	46805.83
242.378	46799.83
242.608	47149.83
242.839	47447.83
243.069	47458.83
243.299	47642.83
243.529	47845.83
243.759	47820.83
243.989	48058.83
244.22	48001.83
244.45	48309.83
244.68	48516.83
244.91	48475.83
245.14	48836.83
245.37	48820.83
245.6	48974.83
245.83	49020.83
246.06	49355.83
246.29	49300.83
246.52	49415.83
246.75	49548.83
246.98	49637.83
247.21	49907.83
247.44	49896.83
247.67	49836.83
247.9	50004.83
248.13	50189.83
248.359	49933.83
248.589	50156.83
248.819	50459.83
249.049	50308.83
249.279	50479.83
249.509	50681.83
249.738	50550.83
249.968	50928.83
250.198	50713.83
250.428	50898.83
250.657	50763.83
250.887	50863.83
251.117	50750.83
251.347	50944.83
251.576	50732.83
251.806	51173.83
252.036	50927.83
252.265	50969.83
252.495	51238.83
252.725	50969.83
252.954	50826.83
253.184	50864.83
253.413	50974.83
253.643	51251.83
253.873	51088.83
254.102	50936.83
254.332	50880.83
254.561	50867.83
254.791	50955.83
255.02	50903.83
255.25	50915.83
255.479	50988.83
255.708	50968.83
255.938	50912.83
256.167	50820.83
256.397	50827.83
256.626	50627.83
256.856	50734.83
257.085	50730.83
257.314	50556.83
257.544	50437.83
257.773	50472.83
258.002	50235.83
258.232	50146.83
258.461	50218.83
258.69	50260.83
258.919	49928.83
259.149	50055.83
259.378	50047.83
259.607	49616.83
259.836	49696.83
260.065	49868.83
260.295	49885.83
260.524	49982.83
260.753	49778.83
260.982	49626.83
261.211	49610.83
261.44	49531.83
261.669	49320.83
261.899	49218.83
262.128	49298.83
262.357	49172.83
262.586	49156.83
262.815	48767.83
263.044	49028.83
263.273	48860.83
263.502	48752.83
263.731	48815.83
263.96	48489.83
264.189	48215.83
264.418	48658.83
264.646	48214.83
264.875	47896.83
265.104	48100.83
265.333	48122.83
265.562	48043.83
265.791	47659.83
266.02	47658.83
266.249	48015.83
266.477	47742.83
266.706	47548.83
266.935	47529.83
267.164	47297.83
267.393	47214.83
267.621	47365.83
267.85	47226.83
268.079	46951.83
268.307	47079.83
268.536	46966.83
268.765	46884.83
268.993	47036.83
269.222	47029.83
269.451	46858.83
269.679	46602.83
269.908	46640.83
270.137	46751.83
270.365	46391.83
270.594	46579.83
270.822	46543.83
271.051	46432.83
271.279	46688.83
271.508	46474.83
271.736	46240.83
271.965	46280.83
272.193	46403.83
272.422	46569.83
272.65	46294.83
272.879	46638.83
273.107	46298.83
273.336	46399.83
273.564	46324.83
273.792	46268.83
274.021	46040.83
274.249	46269.83
274.477	46117.83
274.706	46047.83
274.934	46123.83
275.162	46128.83
275.391	46096.83
275.619	46330.83
275.847	46354.83
276.075	46216.83
276.304	46250.83
276.532	46125.83
276.76	46116.83
276.988	46169.83
277.216	46307.83
277.445	46296.83
277.673	46399.83
277.901	46430.83
278.129	46248.83
278.357	46378.83
278.585	46324.83
278.813	46428.83
279.041	46346.83
279.269	46568.83
279.497	46354.83
279.725	46401.83
279.954	46842.83
280.182	46657.83
280.41	46508.83
280.637	46549.83
280.865	46698.83
281.093	46660.83
281.321	46587.83
281.549	46791.83
281.777	46673.83
282.005	46678.83
282.233	46554.83
282.461	46995.83
282.689	46547.83
282.916	46767.83
283.144	46478.83
283.372	46516.83
283.6	46727.83
283.828	46674.83
284.055	46928.83
284.283	46886.83
284.511	46890.83
284.739	46770.83
284.966	46766.83
285.194	46698.83
285.422	47243.83
285.649	47077.83
285.877	46967.83
286.105	46963.83
286.332	46960.83
286.56	47058.83
286.788	46982.83
287.015	46887.83
287.243	46983.83
287.47	46853.83
287.698	47053.83
287.925	46869.83
288.153	46978.83
288.381	47077.83
288.608	47084.83
288.836	47091.83
289.063	47145.83
289.29	47169.83
289.518	46960.83
289.745	47033.83
289.973	47190.83
290.2	47025.83
290.428	47512.83
290.655	47395.83
290.882	47236.83
291.11	47317.83
291.337	47199.83
291.564	47154.83
291.792	47312.83
292.019	47143.83
292.246	47354.83
292.473	47232.83
292.701	47172.83
292.928	47208.83
293.155	47267.83
293.382	47391.83
293.61	47474.83
293.837	47323.83
294.064	47357.83
294.291	47205.83
294.518	47569.83
294.745	47203.83
294.972	47293.83
295.2	47144.83
295.427	47122.83
295.654	47089.83
295.881	46886.83
296.108	46872.83
296.335	47007.83
296.562	47044.83
296.789	47142.83
297.016	46942.83
297.243	46993.83
297.47	47102.83
297.697	46878.83
297.924	46918.83
298.151	46852.83
298.378	46592.83
298.604	46688.83
298.831	46823.83
299.058	46523.83
299.285	46536.83
299.512	46485.83
299.739	46560.83
299.966	46181.83
300.192	46194.83
300.419	46477.83
300.646	46306.83
300.873	46275.83
301.099	46260.83
301.326	45992.83
301.553	46114.83
301.78	45948.83
302.006	45699.83
302.233	45806.83
302.46	45794.83
302.686	45702.83
302.913	45458.83
303.14	45474.83
303.366	45425.83
303.593	45232.83
303.819	45221.83
304.046	45103.83
304.272	44862.83
304.499	44963.83
304.725	44920.83
304.952	45025.83
305.179	44712.83
305.405	44765.83
305.631	44629.83
305.858	44450.83
306.084	44209.83
306.311	44413.83
306.537	44511.83
306.764	44130.83
306.99	43917.83
307.216	44007.83
307.443	43749.83
307.669	43846.83
307.895	43785.83
308.122	43691.83
308.348	43410.83
308.574	43345.83
308.801	43243.83
309.027	43266.83
309.253	43305.83
309.479	43146.83
309.706	42840.83
309.932	42666.83
310.158	42499.83
310.384	42694.83
310.61	42461.83
310.837	42287.83
311.063	42209.83
311.289	42095.83
311.515	42114.83
311.741	41778.83
311.967	41770.83
312.193	41604.83
312.419	41703.83
312.645	41496.83
312.871	41583.83
313.097	41427.83
313.323	41100.83
313.549	41110.83
313.775	40914.83
314.001	40795.83
314.227	40789.83
314.453	40486.83
314.679	40507.83
314.905	40351.83
315.131	40286.83
315.357	40205.83
315.583	40156.83
315.809	40046.83
316.034	39973.83
316.26	39826.83
316.486	39599.83
316.712	39747.83
316.938	39417.83
317.163	39330.83
317.389	39319.83
317.615	39370.83
317.841	38952.83
318.066	38984.83
318.292	38807.83
318.518	38675.83
318.743	38588.83
318.969	38626.83
319.195	38346.83
319.42	38152.83
319.646	38113.83
319.872	38018.83
320.097	38066.83
320.323	37805.83
320.548	37673.83
320.774	37555.83
320.999	37597.83
321.225	37419.83
321.45	37365.83
321.676	37161.83
321.901	37002.83
322.127	37098.83
322.352	36934.83
322.578	36779.83
322.803	36683.83
323.029	36532.83
323.254	36538.83
323.479	36610.83
323.705	36511.83
323.93	36331.83
324.155	36260.83
324.381	36064.83
324.606	35682.83
324.831	35810.83
325.057	35970.83
325.282	35862.83
325.507	35929.83
325.732	35660.83
325.958	35646.83
326.183	35406.83
326.408	35450.83
326.633	35338.83
326.858	35260.83
327.084	34980.83
327.309	35008.83
327.534	34881.83
327.759	34733.83
327.984	34784.83
328.209	34578.83
328.434	34581.83
328.659	34509.83
328.884	34590.83
329.109	34366.83
329.334	34196.83
329.559	34111.83
329.784	34170.83
330.009	34037.83
330.234	33969.83
330.459	33852.83
330.684	33640.83
330.909	33602.83
331.134	33354.83
331.359	33314.83
331.584	33367.83
331.809	33168.83
332.034	33122.83
332.259	33179.83
332.483	33104.83
332.708	33042.83
332.933	32910.83
333.158	32797.83
333.383	32988.83
333.607	32634.83
333.832	32404.83
334.057	32612.83
334.282	32307.83
334.506	32311.83
334.731	32322.83
334.956	32268.83
335.18	32213.83
335.405	32152.83
335.63	32002.83
335.854	31940.83
336.079	31745.83
336.303	31741.83
336.528	31774.83
336.753	31563.83
336.977	31363.83
337.202	31429.83
337.426	31434.83
337.651	31150.83
337.875	31000.83
338.1	31282.83
338.324	30862.83
338.549	30920.83
338.773	30958.83
338.997	30875.83
339.222	30680.83
339.446	30638.83
339.671	30719.83
339.895	30415.83
340.119	30772.83
340.344	30431.83
340.568	30330.83
340.792	30321.83
341.017	30235.83
341.241	30121.83
341.465	30042.83
341.689	29857.83
341.914	29969.83
342.138	29953.83
342.362	29666.83
342.586	29475.83
342.811	29583.83
343.035	29443.83
343.259	29370.83
343.483	29420.83
343.707	29262.83
343.931	29100.83
344.155	29067.83
344.38	28923.83
344.604	28802.83
344.828	28748.83
345.052	28754.83
345.276	28794.83
345.5	28563.83
345.724	28490.83
345.948	28548.83
346.172	28482.83
346.396	28521.83
346.62	28257.83
346.844	28276.83
347.068	28304.83
347.292	28060.83
347.515	28322.83
347.739	28174.83
347.963	27998.83
348.187	27818.83
348.411	27773.83
348.635	27456.83
348.859	27778.83
349.082	27463.83
349.306	27408.83
349.53	27450.83
349.754	27261.83
349.977	27180.83
350.201	27010.83
350.425	27013.83
350.649	26965.83
350.872	26861.83
351.096	26946.83
351.32	26818.83
351.543	26837.83
351.767	26560.83
351.99	26593.83
352.214	26406.83
352.438	26230.83
352.661	26333.83
352.885	26232.83
353.108	26174.83
353.332	25915.83
353.555	25962.83
353.779	25877.83
354.002	25813.83
354.226	25666.83
354.449	25637.83
354.673	25628.83
354.896	25613.83
355.12	25454.83
355.343	25407.83
355.566	25269.83
355.79	25292.83
356.013	25192.83
356.237	25224.83
356.46	25051.83
356.683	24930.83
356.907	25035.83
357.13	24855.83
357.353	24706.83
357.576	24688.83
357.8	24434.83
358.023	24601.83
358.246	24465.83
358.469	24075.83
358.693	24245.83
358.916	24260.83
359.139	24293.83
359.362	24064.83
359.585	24007.83
359.808	24087.83
360.031	23888.83
360.255	23945.83
360.478	23721.83
360.701	23695.83
360.924	23747.83
361.147	23569.83
361.37	23650.83
361.593	23573.83
361.816	23351.83
362.039	23287.83
362.262	23235.83
362.485	23253.83
362.708	23328.83
362.931	23161.83
363.154	23271.83
363.377	22975.83
363.599	23016.83
363.822	22808.83
364.045	22857.83
364.268	22754.83
364.491	22806.83
364.714	22661.83
364.936	22730.83
365.159	22625.83
365.382	22594.83
365.605	22650.83
365.828	22428.83
366.05	22571.83
366.273	22598.83
366.496	22781.83
366.718	22699.83
366.941	22765.83
367.164	22553.83
367.386	22615.83
367.609	22281.83
367.832	22453.83
368.054	22395.83
368.277	22202.83
368.5	22286.83
368.722	22315.83
368.945	22061.83
369.167	22116.83
369.39	22118.83
369.612	21792.83
369.835	21665.83
370.057	21528.83
370.28	21549.83
370.502	21347.83
370.725	21531.83
370.947	21431.83
371.169	21272.83
371.392	21444.83
371.614	21388.83
371.837	21345.83
372.059	21281.83
372.281	21263.83
372.504	21301.83
372.726	21109.83
372.948	21225.83
373.171	21155.83
373.393	21192.83
373.615	21141.83
373.837	21082.83
374.06	21058.83
374.282	21055.83
374.504	21245.83
374.726	21354.83
374.948	21266.83
375.17	21193.83
375.393	21363.83
375.615	21241.83
375.837	21289.83
376.059	21245.83
376.281	21067.83
376.503	20872.83
376.725	21093.83
376.947	21242.83
377.169	21173.83
377.391	21213.83
377.613	21455.83
377.835	21497.83
378.057	21566.83
378.279	21453.83
378.501	21532.83
378.723	21507.83
378.945	21867.83
379.167	21877.83
379.389	21843.83
379.611	21839.83
379.833	21581.83
380.054	21334.83
380.276	21231.83
380.498	21404.83
380.72	21451.83
380.942	21488.83
381.163	21202.83
381.385	21120.83
381.607	21139.83
381.829	21076.83
382.05	21301.83
382.272	21461.83
382.494	21649.83
382.716	21777.83
382.937	21409.83
383.159	21458.83
383.381	21310.83
383.602	21363.83
383.824	21245.83
384.045	21192.83
384.267	21321.83
384.488	21340.83
384.71	21342.83
384.932	21372.83
385.153	21075.83
385.375	21306.83
385.596	21252.83
385.818	21099.83
386.039	21212.83
386.261	21261.83
386.482	21436.83
386.703	21486.83
386.925	21504.83
387.146	21596.83
387.368	21861.83
387.589	21903.83
387.81	21922.83
388.032	22079.83
388.253	22025.83
388.474	22095.83
388.696	22145.83
388.917	22160.83
389.138	21800.83
389.359	21469.83
389.581	21275.83
389.802	21184.83
390.023	21181.83
390.244	21425.83
390.465	21242.83
390.687	21373.83
390.908	21358.83
391.129	21653.83
391.35	21486.83
391.571	21522.83
391.792	21867.83
392.013	22043.83
392.234	22382.83
392.455	22580.83
392.677	22862.83
392.898	23129.83
393.119	23137.83
393.34	22760.83
393.561	22396.83
393.782	22564.83
394.003	22066.83
394.223	22122.83
394.444	22304.83
394.665	22315.83
394.886	22325.83
395.107	22345.83
395.328	22221.83
395.549	22005.83
395.77	21991.83
395.99	21869.83
396.211	21922.83
396.432	22125.83
396.653	22193.83
396.874	22357.83
397.094	22468.83
397.315	22658.83
397.536	22858.83
397.757	23208.83
397.977	23377.83
398.198	23587.83
398.419	23743.83
398.639	23876.83
398.86	23624.83
399.081	23464.83
399.301	23086.83
399.522	22767.83
399.742	22814.83
399.963	22714.83
400.184	22442.83
400.404	22192.83
400.625	22107.83
400.845	22472.83
401.066	22394.83
401.286	22499.83
401.507	22334.83
401.727	22257.83
401.948	22163.83
402.168	22117.83
402.388	22046.83
402.609	22065.83
402.829	22168.83
403.05	22285.83
403.27	22263.83
403.49	22320.83
403.711	22381.83
403.931	22272.83
404.151	22399.83
404.372	22285.83
404.592	22659.83
404.812	22708.83
405.032	22935.83
405.253	23144.83
405.473	23210.83
405.693	23183.83
405.913	23108.83
406.133	22691.83
406.353	22482.83
406.574	22253.83
406.794	22004.83
407.014	21848.83
407.234	21781.83
407.454	21948.83
407.674	21800.83
407.894	21661.83
408.114	21933.83
408.334	22223.83
408.554	22387.83
408.774	22504.83
408.994	22330.83
409.214	22221.83
409.434	22334.83
409.654	22208.83
409.874	22307.83
410.094	22418.83
410.314	22278.83
410.534	22096.83
410.754	21948.83
410.974	21832.83
411.193	22039.83
411.413	22012.83
411.633	21966.83
411.853	22154.83
412.073	22076.83
412.292	22531.83
412.512	22692.83
412.732	22904.83
412.952	22914.83
413.171	22803.83
413.391	22850.83
413.611	22781.83
413.831	22653.83
414.05	22475.83
414.27	22376.83
414.489	22103.83
414.709	22149.83
414.929	22270.83
415.148	22351.83
415.368	22415.83
415.587	22453.83
415.807	22255.83
416.026	22176.83
416.246	22192.83
416.465	22087.83
416.685	22201.83
416.904	22127.83
417.124	22027.83
417.343	22211.83
417.563	22211.83
417.782	22287.83
418.002	22296.83
418.221	22192.83
418.44	22071.83
418.66	22172.83
418.879	22055.83
419.098	22485.83
419.318	22334.83
419.537	22383.83
419.756	22653.83
419.976	22292.83
420.195	22635.83
420.414	22749.83
420.633	23177.83
420.853	23323.83
421.072	23605.83
421.291	23863.83
421.51	24251.83
421.729	24555.83
421.948	24575.83
422.168	24495.83
422.387	24206.83
422.606	24022.83
422.825	24003.83
423.044	23861.83
423.263	24028.83
423.482	24167.83
423.701	23991.83
423.92	23686.83
424.139	23293.83
424.358	23261.83
424.577	23208.83
424.796	23289.83
425.015	23221.83
425.234	23352.83
425.453	23145.83
425.672	22870.83
425.891	22762.83
426.11	22330.83
426.328	22271.83
426.547	22525.83
426.766	22567.83
426.985	22932.83
427.204	23228.83
427.422	23805.83
427.641	24017.83
427.86	23803.83
428.079	23372.83
428.297	22967.83
428.516	22862.83
428.735	22981.83
428.954	23330.83
429.172	23418.83
429.391	23740.83
429.61	24216.83
429.828	24745.83
430.047	24946.83
430.265	25132.83
430.484	24882.83
430.703	24842.83
430.921	24496.83
431.14	24348.83
431.358	23804.83
431.577	23349.83
431.795	23042.83
432.014	22831.83
432.232	22560.83
432.451	22781.83
432.669	22786.83
432.887	22856.83
433.106	22899.83
433.324	23428.83
