Data from background_MAYP1115451__1__09-32-25-157.txt Node

Date: Thu Jun 06 09:32:25 MDT 2024
User: Modes Lab
Spectrometer: MAYP111545
Trigger mode: 0
Integration Time (sec): 7.200000E-3
Scans to average: 1
Electric dark correction enabled: true
Nonlinearity correction enabled: false
Boxcar width: 0
XAxis mode: Wavelengths
Number of Pixels in Spectrum: 2068
>>>>>Begin Spectral Data<<<<<
165.214	1015
165.449	-187
165.683	32
165.918	-13
166.152	54
166.387	67
166.621	147
166.856	211
167.09	239
167.325	218
167.559	219
167.794	195
168.028	226
168.263	219
168.497	216
168.732	219
168.966	227
169.2	225
169.435	206
169.669	231
169.903	202
170.138	238
170.372	234
170.606	233
170.841	235
171.075	235
171.309	227
171.544	211
171.778	258
172.012	231
172.246	224
172.48	250
172.715	243
172.949	225
173.183	248
173.417	235
173.651	259
173.885	219
174.119	235
174.354	235
174.588	243
174.822	248
175.056	227
175.29	234
175.524	227
175.758	258
175.992	251
176.226	258
176.46	259
176.694	227
176.928	240
177.162	243
177.396	248
177.63	257
177.864	248
178.097	248
178.331	257
178.565	248
178.799	263
179.033	263
179.267	266
179.5	251
179.734	251
179.968	251
180.202	233
180.436	240
180.669	243
180.903	259
181.137	259
181.371	259
181.604	271
181.838	267
182.072	267
182.305	283
182.539	288
182.772	274
183.006	290
183.24	283
183.473	281
183.707	283
183.94	264
184.174	283
184.408	299
184.641	339
184.875	319
185.108	318
185.342	330
185.575	323
185.808	351
186.042	363
186.275	331
186.509	374
186.742	397
186.976	419
187.209	410
187.442	443
187.676	448
187.909	472
188.142	464
188.376	456
188.609	471
188.842	539
189.076	562
189.309	583
189.542	561
189.775	603
190.009	607
190.242	643
190.475	638
190.708	691
190.941	699
191.174	713
191.408	753
191.641	767
191.874	838
192.107	795
192.34	811
192.573	878
192.806	899
193.039	923
193.272	970
193.505	947
193.738	1042
193.971	1018
194.204	1034
194.437	1089
194.67	1051
194.903	1091
195.136	1187
195.369	1154
195.602	1203
195.835	1227
196.068	1248
196.301	1264
196.533	1307
196.766	1303
196.999	1387
197.232	1392
197.465	1410
197.698	1419
197.93	1431
198.163	1531
198.396	1515
198.629	1599
198.861	1607
199.094	1602
199.327	1598
199.559	1682
199.792	1648
200.025	1731
200.257	1738
200.49	1827
200.723	1819
200.955	1849
201.188	1938
201.42	1928
201.653	1955
201.886	1954
202.118	2019
202.351	2071
202.583	2111
202.816	2202
203.048	2251
203.281	2296
203.513	2307
203.745	2386
203.978	2375
204.21	2448
204.443	2507
204.675	2547
204.907	2571
205.14	2678
205.372	2673
205.605	2771
205.837	2899
206.069	2819
206.302	2911
206.534	2987
206.766	3031
206.998	3211
207.231	3199
207.463	3291
207.695	3345
207.927	3336
208.159	3435
208.392	3592
208.624	3680
208.856	3666
209.088	3720
209.32	3811
209.552	3889
209.784	3971
210.017	4027
210.249	4122
210.481	4208
210.713	4314
210.945	4377
211.177	4470
211.409	4491
211.641	4643
211.873	4710
212.105	4851
212.337	4926
212.569	5105
212.801	5003
213.033	5120
213.264	5222
213.496	5387
213.728	5507
213.96	5571
214.192	5648
214.424	5747
214.656	5883
214.887	6083
215.119	6115
215.351	6195
215.583	6416
215.815	6518
216.046	6523
216.278	6643
216.51	6839
216.741	7008
216.973	7011
217.205	7155
217.436	7319
217.668	7526
217.9	7579
218.131	7715
218.363	7728
218.595	7994
218.826	8073
219.058	8147
219.289	8185
219.521	8409
219.752	8515
219.984	8770
220.215	8838
220.447	9040
220.678	9154
220.91	9288
221.141	9398
221.373	9561
221.604	9606
221.836	9763
222.067	9904
222.298	10170
222.53	10266
222.761	10303
222.993	10512
223.224	10643
223.455	10892
223.686	10835
223.918	11203
224.149	11307
224.38	11331
224.612	11547
224.843	11630
225.074	11867
225.305	12048
225.536	12106
225.768	12243
225.999	12360
226.23	12562
226.461	12776
226.692	12859
226.923	13110
227.155	13027
227.386	13241
227.617	13537
227.848	13456
228.079	13645
228.31	13899
228.541	14131
228.772	14235
229.003	14282
229.234	14571
229.465	14627
229.696	14915
229.927	15189
230.158	15192
230.389	15209
230.62	15461
230.85	15603
231.081	15770
231.312	15831
231.543	15859
231.774	16169
232.005	16290
232.236	16493
232.466	16651
232.697	16712
232.928	16850
233.159	16958
233.389	17229
233.62	17166
233.851	17347
234.082	17583
234.312	17415
234.543	17603
234.774	17849
235.004	17803
235.235	17941
235.466	17994
235.696	18179
235.927	18106
236.157	18415
236.388	18395
236.618	18403
236.849	18583
237.08	18647
237.31	18730
237.541	18811
237.771	18886
238.002	19014
238.232	19080
238.463	19152
238.693	19211
238.923	19243
239.154	19243
239.384	19328
239.615	19531
239.845	19560
240.075	19607
240.306	19706
240.536	19710
240.766	19829
240.997	19762
241.227	19850
241.457	19931
241.687	19767
241.918	19830
242.148	20115
242.378	20056
242.608	19987
242.839	20184
243.069	20039
243.299	20122
243.529	20142
243.759	20367
243.989	20401
244.22	20322
244.45	20515
244.68	20243
244.91	20442
245.14	20507
245.37	20507
245.6	20737
245.83	20609
246.06	20515
246.29	20598
246.52	20791
246.75	20702
246.98	20810
247.21	20747
247.44	20832
247.67	20681
247.9	20923
248.13	21019
248.359	21007
248.589	20986
248.819	20955
249.049	20931
249.279	20946
249.509	21059
249.738	20899
249.968	21127
250.198	21235
250.428	21106
250.657	21167
250.887	21107
251.117	21263
251.347	21153
251.576	21176
251.806	21146
252.036	21315
252.265	21378
252.495	21243
252.725	21384
252.954	21374
253.184	21225
253.413	21225
253.643	21384
253.873	21179
254.102	21275
254.332	21166
254.561	21341
254.791	21211
255.02	21317
255.25	21307
255.479	21227
255.708	21223
255.938	21056
256.167	21121
256.397	21339
256.626	21126
256.856	21208
257.085	21200
257.314	21057
257.544	21223
257.773	21218
258.002	20983
258.232	21166
258.461	20787
258.69	21167
258.919	21066
259.149	21145
259.378	21138
259.607	20943
259.836	20968
260.065	20880
260.295	20894
260.524	20945
260.753	20771
260.982	20802
261.211	20821
261.44	20833
261.669	20786
261.899	20722
262.128	20739
262.357	20697
262.586	20759
262.815	20599
263.044	20731
263.273	20491
263.502	20638
263.731	20713
263.96	20550
264.189	20363
264.418	20408
264.646	20361
264.875	20426
265.104	20358
265.333	20241
265.562	20411
265.791	20369
266.02	20307
266.249	20296
266.477	20466
266.706	20309
266.935	20211
267.164	20280
267.393	20058
267.621	20200
267.85	20115
268.079	20163
268.307	20145
268.536	20170
268.765	20027
268.993	20030
269.222	19995
269.451	20047
269.679	20146
269.908	19960
270.137	20085
270.365	20147
270.594	20042
270.822	20011
271.051	19922
271.279	19987
271.508	19939
271.736	19915
271.965	20039
272.193	19813
272.422	19904
272.65	19995
272.879	20059
273.107	20030
273.336	20066
273.564	20107
273.792	20080
274.021	20002
274.249	19979
274.477	20107
274.706	20103
274.934	19923
275.162	19939
275.391	19914
275.619	20144
275.847	20203
276.075	20090
276.304	20217
276.532	20141
276.76	20139
276.988	20097
277.216	20160
277.445	20159
277.673	20229
277.901	20320
278.129	20211
278.357	20231
278.585	20311
278.813	20363
279.041	20355
279.269	20276
279.497	20328
279.725	20401
279.954	20298
280.182	20419
280.41	20658
280.637	20507
280.865	20529
281.093	20537
281.321	20615
281.549	20707
281.777	20714
282.005	20439
282.233	20496
282.461	20531
282.689	20704
282.916	20499
283.144	20675
283.372	20605
283.6	20651
283.828	20546
284.055	20753
284.283	20734
284.511	20839
284.739	20912
284.966	20883
285.194	20895
285.422	20899
285.649	21011
285.877	20913
286.105	20877
286.332	20961
286.56	21011
286.788	20842
287.015	21084
287.243	21003
287.47	20921
287.698	20891
287.925	21025
288.153	21048
288.381	20963
288.608	21096
288.836	20968
289.063	21199
289.29	20955
289.518	21118
289.745	21241
289.973	21144
290.2	21134
290.428	21123
290.655	21059
290.882	21207
291.11	21183
291.337	21346
291.564	21199
291.792	21197
292.019	21310
292.246	21424
292.473	21248
292.701	21411
292.928	21203
293.155	21322
293.382	21295
293.61	21331
293.837	21176
294.064	21270
294.291	21207
294.518	21325
294.745	21459
294.972	21427
295.2	21335
295.427	21512
295.654	21344
295.881	21241
296.108	21336
296.335	21451
296.562	21531
296.789	21394
297.016	21339
297.243	21515
297.47	21349
297.697	21350
297.924	21289
298.151	21555
298.378	21243
298.604	21299
298.831	21443
299.058	21235
299.285	21282
299.512	21167
299.739	21312
299.966	21175
300.192	21048
300.419	21082
300.646	21155
300.873	20987
301.099	21177
301.326	20987
301.553	21086
301.78	21121
302.006	21055
302.233	20887
302.46	20943
302.686	20784
302.913	20953
303.14	20955
303.366	20838
303.593	20847
303.819	20835
304.046	20910
304.272	20755
304.499	20728
304.725	20761
304.952	20624
305.179	20651
305.405	20507
305.631	20630
305.858	20459
306.084	20595
306.311	20433
306.537	20567
306.764	20435
306.99	20467
307.216	20401
307.443	20355
307.669	20339
307.895	20384
308.122	20306
308.348	20274
308.574	20125
308.801	20121
309.027	20097
309.253	20233
309.479	20114
309.706	19883
309.932	19938
310.158	19835
310.384	20009
310.61	19866
310.837	19727
311.063	19856
311.289	19662
311.515	19699
311.741	19672
311.967	19554
312.193	19582
312.419	19560
312.645	19410
312.871	19483
313.097	19431
313.323	19259
313.549	19457
313.775	19405
314.001	19296
314.227	19185
314.453	19169
314.679	19216
314.905	18979
315.131	19007
315.357	18942
315.583	19001
315.809	18859
316.034	18875
316.26	18813
316.486	18793
316.712	18858
316.938	18634
317.163	18600
317.389	18691
317.615	18546
317.841	18547
318.066	18583
318.292	18563
318.518	18366
318.743	18211
318.969	18315
319.195	18243
319.42	18262
319.646	17994
319.872	18107
320.097	18179
320.323	18019
320.548	17959
320.774	18062
320.999	17968
321.225	17842
321.45	17792
321.676	17699
321.901	17914
322.127	17582
322.352	17615
322.578	17530
322.803	17443
323.029	17518
323.254	17470
323.479	17495
323.705	17395
323.93	17323
324.155	17402
324.381	17360
324.606	17379
324.831	17195
325.057	17163
325.282	17191
325.507	17155
325.732	17091
325.958	17019
326.183	17015
326.408	16928
326.633	17022
326.858	17003
327.084	16859
327.309	16843
327.534	16891
327.759	16874
327.984	16766
328.209	16730
328.434	16731
328.659	16802
328.884	16635
329.109	16571
329.334	16674
329.559	16542
329.784	16675
330.009	16363
330.234	16411
330.459	16432
330.684	16323
330.909	16386
331.134	16201
331.359	16289
331.584	16232
331.809	16306
332.034	16099
332.259	16099
332.483	16027
332.708	15986
332.933	15986
333.158	16087
333.383	15907
333.607	15915
333.832	15859
334.057	15705
334.282	15889
334.506	15767
334.731	15911
334.956	15744
335.18	15601
335.405	15752
335.63	15571
335.854	15635
336.079	15683
336.303	15603
336.528	15455
336.753	15571
336.977	15437
337.202	15459
337.426	15284
337.651	15463
337.875	15318
338.1	15280
338.324	15319
338.549	15321
338.773	15203
338.997	15235
339.222	15235
339.446	15168
339.671	15007
339.895	15011
340.119	14970
340.344	15139
340.568	15035
340.792	15122
341.017	14971
341.241	14963
341.465	14795
341.689	14874
341.914	14819
342.138	14779
342.362	14803
342.586	14647
342.811	14744
343.035	14537
343.259	14535
343.483	14587
343.707	14671
343.931	14664
344.155	14493
344.38	14411
344.604	14363
344.828	14427
345.052	14411
345.276	14395
345.5	14450
345.724	14266
345.948	14302
346.172	14258
346.396	14251
346.62	14146
346.844	14187
347.068	14296
347.292	14075
347.515	14155
347.739	14119
347.963	14083
348.187	14019
348.411	14107
348.635	13768
348.859	14003
349.082	13983
349.306	13831
349.53	13779
349.754	13754
349.977	13729
350.201	13717
350.425	13699
350.649	13622
350.872	13523
351.096	13598
351.32	13571
351.543	13355
351.767	13435
351.99	13527
352.214	13454
352.438	13443
352.661	13347
352.885	13363
353.108	13323
353.332	13350
353.555	13299
353.779	13163
354.002	13165
354.226	13099
354.449	13151
354.673	13239
354.896	13148
355.12	13008
355.343	12979
355.566	12963
355.79	13003
356.013	12827
356.237	12832
356.46	12891
356.683	12771
356.907	12800
357.13	12754
357.353	12713
357.576	12666
357.8	12696
358.023	12609
358.246	12544
358.469	12609
358.693	12475
358.916	12521
359.139	12467
359.362	12435
359.585	12351
359.808	12419
360.031	12307
360.255	12313
360.478	12314
360.701	12187
360.924	12197
361.147	12291
361.37	12176
361.593	12131
361.816	12179
362.039	12225
362.262	12051
362.485	12083
362.708	11984
362.931	11931
363.154	11923
363.377	11995
363.599	11907
363.822	12006
364.045	11832
364.268	11834
364.491	11907
364.714	11894
364.936	11891
365.159	11779
365.382	11819
365.605	11854
365.828	11755
366.05	11851
366.273	11841
366.496	11894
366.718	11803
366.941	11863
367.164	11886
367.386	11840
367.609	11855
367.832	11787
368.054	11795
368.277	11729
368.5	11697
368.722	11803
368.945	11650
369.167	11555
369.39	11591
369.612	11603
369.835	11418
370.057	11456
370.28	11384
370.502	11459
370.725	11347
370.947	11400
371.169	11391
371.392	11283
371.614	11376
371.837	11402
372.059	11346
372.281	11362
372.504	11307
372.726	11267
372.948	11376
373.171	11303
373.393	11211
373.615	11269
373.837	11226
374.06	11329
374.282	11286
374.504	11459
374.726	11410
374.948	11414
375.17	11491
375.393	11523
375.615	11454
375.837	11451
376.059	11543
376.281	11401
376.503	11507
376.725	11389
376.947	11435
377.169	11499
377.391	11599
377.613	11627
377.835	11697
378.057	11642
378.279	11737
378.501	11683
378.723	11854
378.945	11871
379.167	12041
379.389	11978
379.611	11870
379.833	11798
380.054	11688
380.276	11680
380.498	11793
380.72	11746
380.942	11723
381.163	11595
381.385	11483
381.607	11651
381.829	11667
382.05	11771
382.272	11811
382.494	11834
382.716	11885
382.937	11854
383.159	11851
383.381	11845
383.602	11760
383.824	11715
384.045	11771
384.267	11835
384.488	11742
384.71	11874
384.932	11837
385.153	11866
385.375	11851
385.596	11846
385.818	11808
386.039	11904
386.261	11845
386.482	12051
386.703	12075
386.925	12011
387.146	12067
387.368	12290
387.589	12211
387.81	12413
388.032	12374
388.253	12459
388.474	12460
388.696	12477
388.917	12382
389.138	12214
389.359	12151
389.581	11936
389.802	12011
390.023	12128
390.244	12107
390.465	12114
390.687	12202
390.908	12200
391.129	12275
391.35	12338
391.571	12291
391.792	12374
392.013	12507
392.234	12691
392.455	12961
392.677	13178
392.898	13267
393.119	13115
393.34	12907
393.561	12843
393.782	12891
394.003	12594
394.223	12657
394.444	12697
394.665	12791
394.886	12768
395.107	12819
395.328	12659
395.549	12583
395.77	12587
395.99	12707
396.211	12771
396.432	12699
396.653	12801
396.874	12926
397.094	13003
397.315	13145
397.536	13212
397.757	13376
397.977	13450
398.198	13819
398.419	13730
398.639	13795
398.86	13679
399.081	13519
399.301	13539
399.522	13411
399.742	13177
399.963	13214
400.184	13137
400.404	12979
400.625	13003
400.845	13217
401.066	13097
401.286	13186
401.507	13146
401.727	13041
401.948	13050
402.168	13027
402.388	13051
402.609	12993
402.829	13019
403.05	13019
403.27	13079
403.49	13099
403.711	13146
403.931	13114
404.151	13421
404.372	13346
404.592	13491
404.812	13528
405.032	13603
405.253	13600
405.473	13843
405.693	13667
405.913	13823
406.133	13475
406.353	13339
406.574	13185
406.794	13126
407.014	13083
407.234	13039
407.454	13001
407.674	12914
407.894	13014
408.114	13296
408.334	13187
408.554	13355
408.774	13369
408.994	13391
409.214	13281
409.434	13419
409.654	13379
409.874	13547
410.094	13455
410.314	13451
410.534	13263
410.754	13151
410.974	13291
411.193	13307
411.413	13259
411.633	13274
411.853	13422
412.073	13538
412.292	13682
412.512	13843
412.732	13859
412.952	13923
413.171	13850
413.391	13819
413.611	13694
413.831	13737
414.05	13571
414.27	13625
414.489	13528
414.709	13568
414.929	13570
415.148	13611
415.368	13571
415.587	13539
415.807	13590
416.026	13627
416.246	13683
416.465	13715
416.685	13720
416.904	13549
417.124	13595
417.343	13695
417.563	13714
417.782	13673
418.002	13763
418.221	13738
418.44	13744
418.66	13726
418.879	13779
419.098	13697
419.318	13722
419.537	13886
419.756	13987
419.976	14027
420.195	14203
420.414	14218
420.633	14336
420.853	14539
421.072	14779
421.291	14795
421.51	15065
421.729	15165
421.948	15347
422.168	15112
422.387	14979
422.606	14963
422.825	14922
423.044	15112
423.263	15051
423.482	15008
423.701	14986
423.92	14866
424.139	14711
424.358	14431
424.577	14650
424.796	14664
425.015	14619
425.234	14733
425.453	14547
425.672	14451
425.891	14435
426.11	14208
426.328	14343
426.547	14323
426.766	14410
426.985	14563
427.204	14883
427.422	15110
427.641	15107
427.86	14968
428.079	14819
428.297	14545
428.516	14715
428.735	14681
428.954	14747
429.172	14918
429.391	15264
429.61	15659
429.828	15774
430.047	15875
430.265	16099
430.484	15795
430.703	15768
430.921	15571
431.14	15571
431.358	15227
431.577	15050
431.795	14841
432.014	14782
432.232	14646
432.451	14683
432.669	14680
432.887	14662
433.106	14915
433.324	15245
433.543	15696
433.761	16075
433.979	16235
434.198	15983
434.416	15602
434.634	15270
434.853	14986
435.071	15146
435.289	15385
435.507	15245
435.726	15207
435.944	15283
436.162	15235
436.38	15385
436.598	15587
436.817	15563
437.035	15518
437.253	15322
437.471	15184
437.689	15203
437.907	15418
438.125	15440
438.343	15618
438.561	15539
438.78	15739
438.998	15571
439.216	15627
439.434	15571
439.652	15546
439.869	15563
440.087	15553
440.305	15459
440.523	15711
440.741	15848
440.959	16299
441.177	16547
441.395	16939
441.613	17075
441.831	17027
442.048	16794
442.266	16561
442.484	16395
442.702	16395
442.919	16328
443.137	16390
443.355	16753
443.573	16883
443.79	16843
444.008	16775
444.226	16787
444.443	16635
444.661	16667
444.879	16719
445.096	16819
445.314	16665
445.532	16649
445.749	16585
445.967	16616
446.184	16795
446.402	16939
446.619	16838
446.837	16864
447.054	16770
447.272	16595
447.489	16615
447.707	16667
447.924	16625
448.141	16543
448.359	16743
448.576	16611
448.794	16566
449.011	16778
449.228	16761
449.446	16811
449.663	16767
449.88	16697
450.098	16866
450.315	16780
450.532	16705
450.749	16747
450.967	16496
451.184	16635
451.401	16571
451.618	16562
451.835	16603
452.052	16707
452.27	16699
452.487	16454
452.704	16520
452.921	16464
453.138	16542
453.355	16472
453.572	16559
453.789	16529
454.006	16483
454.223	16406
454.44	16490
454.657	16504
454.874	16579
455.091	16863
455.308	16872
455.525	16888
455.742	16761
455.959	16779
456.176	16719
456.393	16600
456.609	16785
456.826	16792
457.043	16865
457.26	17019
457.477	16993
457.693	17161
457.91	17467
458.127	17475
458.344	17432
458.56	17423
458.777	17395
458.994	17331
459.21	17435
459.427	17329
459.644	17230
459.86	17294
460.077	17283
460.294	16978
460.51	16931
460.727	17014
460.943	17027
461.16	16938
461.376	16922
461.593	16906
461.809	16651
462.026	16701
462.242	16563
462.459	16734
462.675	16546
462.892	16745
463.108	16835
463.324	17059
463.541	17147
463.757	17163
463.974	17427
464.19	17464
464.406	17651
464.623	17674
464.839	17643
465.055	17707
465.271	17810
465.488	17838
465.704	17725
465.92	17643
466.136	17598
466.353	17345
466.569	17457
466.785	17175
467.001	17017
467.217	17099
467.433	17001
467.649	17102
467.865	17003
468.082	17227
468.298	17235
468.514	17115
468.73	16922
468.946	16979
469.162	16929
469.378	16757
469.594	16878
469.81	16897
470.026	16823
470.242	16843
470.457	16918
470.673	16867
470.889	17038
471.105	17011
471.321	16931
471.537	17047
471.753	16975
471.968	17056
472.184	17175
472.4	17384
472.616	17512
472.832	17539
473.047	17674
473.263	17795
473.479	17770
473.694	17758
473.91	17791
474.126	17754
474.341	17658
474.557	17808
474.773	17851
474.988	18083
475.204	18219
475.42	18267
475.635	18139
475.851	18187
476.066	17987
476.282	18187
476.497	18107
476.713	18154
476.928	18258
477.144	18146
477.359	17997
477.575	18254
477.79	18378
478.005	18459
478.221	18554
478.436	18483
478.651	18355
478.867	18379
479.082	18355
479.297	18537
479.513	18595
479.728	18731
479.943	18823
480.159	18846
480.374	18907
480.589	18936
480.804	18711
481.019	18757
481.235	18946
481.45	18871
481.665	19083
481.88	19003
482.095	18944
482.31	18931
482.525	18757
482.741	18816
482.956	18846
483.171	19011
483.386	18985
483.601	19011
483.816	19072
484.031	19146
484.246	19379
484.461	19656
484.676	19603
484.891	19648
485.105	20227
485.32	22315
485.535	25587
485.75	27651
485.965	29208
486.18	28553
486.395	26033
486.609	23889
486.824	21738
487.039	20147
487.254	19754
487.469	19568
487.683	19587
487.898	19395
488.113	19366
488.327	19079
