Data from MAYP1115451__1__15-29-02-278.txt Node

Date: Thu May 16 15:29:02 MDT 2024
User: Modes Lab
Spectrometer: MAYP111545
Trigger mode: 0
Integration Time (sec): 1.000000E-2
Scans to average: 5
Electric dark correction enabled: true
Nonlinearity correction enabled: false
Boxcar width: 5
XAxis mode: Wavelengths
Number of Pixels in Spectrum: 2068
>>>>>Begin Spectral Data<<<<<
165.214	154.47
165.449	151.46
165.683	159.78
165.918	166.8
166.152	172.5
166.387	177.42
166.621	107.02
166.856	143.98
167.09	160.85
167.325	180.76
167.559	196
167.794	210.24
168.028	218.25
168.263	218.75
168.497	218
168.732	217.8
168.966	217.91
169.2	217.65
169.435	217.85
169.669	218.09
169.903	219.8
170.138	220.6
170.372	221
170.606	221.25
170.841	220.71
171.075	221.58
171.309	221.8
171.544	221.24
171.778	221.67
172.012	222.07
172.246	221.78
172.48	221.65
172.715	222.24
172.949	222.42
173.183	222.22
173.417	222.6
173.651	222.58
173.885	222.78
174.119	222.64
174.354	223.62
174.588	223.02
174.822	222.89
175.056	222.96
175.29	223.07
175.524	222.75
175.758	223.27
175.992	224.2
176.226	223.45
176.46	224.02
176.694	224.35
176.928	224.4
177.162	225.65
177.396	226.07
177.63	227.2
177.864	227.55
178.097	228.85
178.331	229.25
178.565	229.38
178.799	231.05
179.033	230.64
179.267	231.24
179.5	231.29
179.734	231.11
179.968	232.24
180.202	231.76
180.436	232.47
180.669	232.67
180.903	232.13
181.137	232.2
181.371	232.16
181.604	232.05
181.838	232.02
182.072	231.85
182.305	232.07
182.539	232.18
182.772	232.91
183.006	233.27
183.24	232.42
183.473	235.29
183.707	236.18
183.94	236.93
184.174	238.6
184.408	240.22
184.641	241.44
184.875	242.15
185.108	242.91
185.342	243.25
185.575	243.85
185.808	244.65
186.042	243.84
186.275	244.55
186.509	245.24
186.742	246.55
186.976	247.29
187.209	247.93
187.442	248.87
187.676	249.96
187.909	251.09
188.142	252.22
188.376	253.53
188.609	254.15
188.842	254.71
189.076	256.47
189.309	256.93
189.542	258.82
189.775	261.15
190.009	263.96
190.242	265.33
190.475	267.11
190.708	269.56
190.941	272.76
191.174	275.91
191.408	278.76
191.641	281.78
191.874	285.13
192.107	289.02
192.34	293.22
192.573	298.67
192.806	305.69
193.039	312.47
193.272	320.29
193.505	329.56
193.738	340.85
193.971	354.13
194.204	368.25
194.437	384.87
194.67	402.04
194.903	421.75
195.136	442.65
195.369	466.93
195.602	493.04
195.835	521.91
196.068	552.98
196.301	587.58
196.533	624.95
196.766	663.62
196.999	704.07
197.232	745.89
197.465	790.93
197.698	838.31
197.93	887.95
198.163	940.25
198.396	992.47
198.629	1045.84
198.861	1101.49
199.094	1156.85
199.327	1213.87
199.559	1273.09
199.792	1333.96
200.025	1395.82
200.257	1457.78
200.49	1520.71
200.723	1582.15
200.955	1650.45
201.188	1717.98
201.42	1783.24
201.653	1850.53
201.886	1921.25
202.118	1991.13
202.351	2060.58
202.583	2130.93
202.816	2205.53
203.048	2281.15
203.281	2359.76
203.513	2433.84
203.745	2513.55
203.978	2595.75
204.21	2680.04
204.443	2762.53
204.675	2846.82
204.907	2936.24
205.14	3025.89
205.372	3118.25
205.605	3207.89
205.837	3304.18
206.069	3403.02
206.302	3498.58
206.534	3594.55
206.766	3693.29
206.998	3798.24
207.231	3906.75
207.463	4017.78
207.695	4130.62
207.927	4241.69
208.159	4358.76
208.392	4471.49
208.624	4592.22
208.856	4716.73
209.088	4843.85
209.32	4972.82
209.552	5101.29
209.784	5229.71
210.017	5358.13
210.249	5491.76
210.481	5630
210.713	5770.91
210.945	5913.87
211.177	6055.44
211.409	6203.42
211.641	6351.04
211.873	6497.8
212.105	6649.04
212.337	6809.55
212.569	6969.6
212.801	7135.25
213.033	7299.85
213.264	7461.16
213.496	7627.8
213.728	7798.47
213.96	7971.8
214.192	8151.87
214.424	8342.27
214.656	8527.95
214.887	8711.69
215.119	8901.2
215.351	9085.75
215.583	9268.09
215.815	9466.35
216.046	9666.13
216.278	9861.38
216.51	10060.4
216.741	10261.04
216.973	10452.15
217.205	10654.27
217.436	10859.11
217.668	11065.15
217.9	11275.24
218.131	11491.89
218.363	11705.04
218.595	11922.02
218.826	12139.95
219.058	12357.35
219.289	12574.8
219.521	12804.76
219.752	13029.93
219.984	13255.69
220.215	13487.64
220.447	13717.93
220.678	13956.96
220.91	14192
221.141	14429.24
221.373	14673.73
221.604	14920.45
221.836	15170.98
222.067	15421.18
222.298	15675.04
222.53	15932.31
222.761	16193.93
222.993	16459.02
223.224	16723.58
223.455	16991.82
223.686	17259.27
223.918	17530.44
224.149	17806.82
224.38	18083.67
224.612	18359.13
224.843	18646.4
225.074	18933.67
225.305	19213.64
225.536	19496.07
225.768	19785.75
225.999	20073.29
226.23	20360.64
226.461	20649.15
226.692	20929.67
226.923	21219.53
227.155	21512.16
227.386	21801.42
227.617	22097.02
227.848	22390.95
228.079	22697.18
228.31	22991.58
228.541	23298.04
228.772	23609.67
229.003	23922.07
229.234	24235.84
229.465	24544
229.696	24849.13
229.927	25149.87
230.158	25452.29
230.389	25762.04
230.62	26073.29
230.85	26388.16
231.081	26696.15
231.312	27003.24
231.543	27310.15
231.774	27623.95
232.005	27934.16
232.236	28249.98
232.466	28567.95
232.697	28878.33
232.928	29185.49
233.159	29479.55
233.389	29775.31
233.62	30069.07
233.851	30356.91
234.082	30632.8
234.312	30907.33
234.543	31168.98
234.774	31430.25
235.004	31674.85
235.235	31914.58
235.466	32152.44
235.696	32386.47
235.927	32624.04
236.157	32856.78
236.388	33102.78
236.618	33331.02
236.849	33552.93
237.08	33787.93
237.31	34004.6
237.541	34220.29
237.771	34442.65
238.002	34658.58
238.232	34870.45
238.463	35066.4
238.693	35263.49
238.923	35438.49
239.154	35627.64
239.384	35801.02
239.615	35971.29
239.845	36142.24
240.075	36326.11
240.306	36493.49
240.536	36662.38
240.766	36823.56
240.997	36981.53
241.227	37133.84
241.457	37287.53
241.687	37431.95
241.918	37594.6
242.148	37746.45
242.378	37908.71
242.608	38058.13
242.839	38198.75
243.069	38330.4
243.299	38470.53
243.529	38602.56
243.759	38731.16
243.989	38860.27
244.22	39000.15
244.45	39126.49
244.68	39245.13
244.91	39358.56
245.14	39466.13
245.37	39590.31
245.6	39714.56
245.83	39829.87
246.06	39961.31
246.29	40082.84
246.52	40198.67
246.75	40320.07
246.98	40446.15
247.21	40570.93
247.44	40690.75
247.67	40814.95
247.9	40932.53
248.13	41031.2
248.359	41153
248.589	41255.96
248.819	41366.89
249.049	41482.11
249.279	41584.47
249.509	41670
249.738	41759.73
249.968	41848.65
250.198	41936.76
250.428	42021.65
250.657	42133.93
250.887	42217.35
251.117	42316.13
251.347	42413.36
251.576	42503
251.806	42588.91
252.036	42682.35
252.265	42773.2
252.495	42858.25
252.725	42952.42
252.954	43029.53
253.184	43103.35
253.413	43176.96
253.643	43238.35
253.873	43300.89
254.102	43359.95
254.332	43430.65
254.561	43480.51
254.791	43538.71
255.02	43602.47
255.25	43648.2
255.479	43716.67
255.708	43764.8
255.938	43814.05
256.167	43859.42
256.397	43889.65
256.626	43920.78
256.856	43938.15
257.085	43972.35
257.314	43991.96
257.544	44008.96
257.773	44027.29
258.002	44040.44
258.232	44067.64
258.461	44093.25
258.69	44111.42
258.919	44141.73
259.149	44171.71
259.378	44205.87
259.607	44239.27
259.836	44285.62
260.065	44327.35
260.295	44370.47
260.524	44399.33
260.753	44432.09
260.982	44462.71
261.211	44506.31
261.44	44538.62
261.669	44576.82
261.899	44611.38
262.128	44637.87
262.357	44656.56
262.586	44667.76
262.815	44672.05
263.044	44683.4
263.273	44686.49
263.502	44690.45
263.731	44692.29
263.96	44700.05
264.189	44701.87
264.418	44706.91
264.646	44710.49
264.875	44725.45
265.104	44746.07
265.333	44774.53
265.562	44799.53
265.791	44808.4
266.02	44827.93
266.249	44838.25
266.477	44853.84
266.706	44872.85
266.935	44889.64
267.164	44926.84
267.393	44955.71
267.621	44987.76
267.85	45013.35
268.079	45032.73
268.307	45077.02
268.536	45116.45
268.765	45164.87
268.993	45204.09
269.222	45245.15
269.451	45288.6
269.679	45318.07
269.908	45352.56
270.137	45390.58
270.365	45442.25
270.594	45505.31
270.822	45562
271.051	45620.24
271.279	45674.45
271.508	45740.4
271.736	45816.89
271.965	45886.51
272.193	45966
272.422	46039.33
272.65	46117.13
272.879	46190.15
273.107	46258.47
273.336	46337.24
273.564	46415.04
273.792	46494.22
274.021	46567.62
274.249	46628.96
274.477	46702.56
274.706	46786.2
274.934	46869.15
275.162	46960.31
275.391	47051.93
275.619	47154
275.847	47242.05
276.075	47339.51
276.304	47443.78
276.532	47561.98
276.76	47664.04
276.988	47768.42
277.216	47865.04
277.445	47965.64
277.673	48066.05
277.901	48156.76
278.129	48255.36
278.357	48355.71
278.585	48452.56
278.813	48553.56
279.041	48657.53
279.269	48789.53
279.497	48906.71
279.725	49027.73
279.954	49154.4
280.182	49271.85
280.41	49402.82
280.637	49525.75
280.865	49652.62
281.093	49768.51
281.321	49888.22
281.549	49989.42
281.777	50092.22
282.005	50198.45
282.233	50310.33
282.461	50412.53
282.689	50510.98
282.916	50628.11
283.144	50739.73
283.372	50858.13
283.6	50980.65
283.828	51098.84
284.055	51226.69
284.283	51339.64
284.511	51463.02
284.739	51568.13
284.966	51677.05
285.194	51795.22
285.422	51890.85
285.649	51998.11
285.877	52096.69
286.105	52196.78
286.332	52301.29
286.56	52399.84
286.788	52500.04
287.015	52604.24
287.243	52718.95
287.47	52843.47
287.698	52955.67
287.925	53070.31
288.153	53182.96
288.381	53291.55
288.608	53405.42
288.836	53515.53
289.063	53633.69
289.29	53759.25
289.518	53873.84
289.745	53988.49
289.973	54104
290.2	54217.35
290.428	54328.85
290.655	54438.25
290.882	54550.91
291.11	54657.67
291.337	54759.31
291.564	54868.04
291.792	54972.91
292.019	55071.53
292.246	55168.8
292.473	55249.96
292.701	55341.91
292.928	55430.15
293.155	55524.76
293.382	55608.51
293.61	55704.38
293.837	55788.64
294.064	55868.71
294.291	55944.4
294.518	56022.27
294.745	56088.45
294.972	56175.55
295.2	56235.65
295.427	56318.29
295.654	56383.42
295.881	56461.27
296.108	56525.98
296.335	56594.47
296.562	56668.22
296.789	56728.07
297.016	56783.2
297.243	56845.87
297.47	56892.05
297.697	56950.44
297.924	56994.33
298.151	57037.69
298.378	57070.73
298.604	57095.42
298.831	57118.16
299.058	57129.16
299.285	57165.71
299.512	57194.09
299.739	57218.93
299.966	57232.33
300.192	57248.62
300.419	57239.29
300.646	57232.87
300.873	57225.24
301.099	57221.65
301.326	57222.47
301.553	57218.67
301.78	57199.76
302.006	57176.98
302.233	57148.24
302.46	57136.24
302.686	57121.64
302.913	57111.27
303.14	57088.25
303.366	57065.89
303.593	57031.78
303.819	57015.02
304.046	56984.31
304.272	56939.64
304.499	56913.13
304.725	56886.84
304.952	56854.44
305.179	56817.44
305.405	56774.25
305.631	56743.95
305.858	56707.33
306.084	56681.91
306.311	56635.47
306.537	56594.89
306.764	56564.44
306.99	56525.16
307.216	56479.18
307.443	56425.27
307.669	56370.65
307.895	56343.15
308.122	56308.98
308.348	56268.75
308.574	56214.44
308.801	56160.96
309.027	56102.07
309.253	56034.07
309.479	55963.22
309.706	55903.98
309.932	55840.07
310.158	55772.51
310.384	55696.69
310.61	55623.78
310.837	55549.69
311.063	55491.82
311.289	55431.42
311.515	55362.51
311.741	55301.24
311.967	55234.65
312.193	55157.44
312.419	55093.75
312.645	55019.05
312.871	54933.93
313.097	54856.29
313.323	54769.69
313.549	54688.75
313.775	54594.05
314.001	54521.78
314.227	54428.2
314.453	54345.51
314.679	54259.87
314.905	54158.95
315.131	54072.04
315.357	53984.42
315.583	53885.67
315.809	53804.56
316.034	53710.95
316.26	53628.13
316.486	53528.25
316.712	53447.84
316.938	53354.11
317.163	53265.38
317.389	53172.45
317.615	53075.36
317.841	52988.87
318.066	52896.44
318.292	52808.25
318.518	52708.96
318.743	52621
318.969	52539.98
319.195	52434.75
319.42	52349.69
319.646	52259.91
319.872	52176.51
320.097	52096.4
320.323	52002.62
320.548	51912.25
320.774	51817.27
320.999	51723.84
321.225	51619.16
321.45	51520.64
321.676	51450.8
321.901	51367.22
322.127	51289.96
322.352	51210.98
322.578	51134.69
322.803	51070.35
323.029	51005.31
323.254	50934.07
323.479	50860.45
323.705	50800.69
323.93	50729.71
324.155	50662.47
324.381	50588.31
324.606	50517.69
324.831	50453.75
325.057	50375.31
325.282	50287.24
325.507	50192.65
325.732	50115.44
325.958	50053.05
326.183	49971.18
326.408	49882.07
326.633	49787.31
326.858	49699.76
327.084	49616.35
327.309	49526.24
327.534	49454.04
327.759	49391.76
327.984	49326.31
328.209	49251.11
328.434	49172.58
328.659	49104.69
328.884	49050.84
329.109	48989.64
329.334	48932.07
329.559	48854.13
329.784	48778.45
330.009	48702.27
330.234	48607.87
330.459	48520.51
330.684	48449.67
330.909	48364.35
331.134	48280.47
331.359	48188.15
331.584	48098.58
331.809	48013.33
332.034	47934.27
332.259	47850.07
332.483	47763.07
332.708	47684.95
332.933	47607.76
333.158	47521
333.383	47456.47
333.607	47368.22
333.832	47290.69
334.057	47219.75
334.282	47153.15
334.506	47089.8
334.731	47024.24
334.956	46953.85
335.18	46892.71
335.405	46825.55
335.63	46744.45
335.854	46651.15
336.079	46575.95
336.303	46495.98
336.528	46414.24
336.753	46322.38
336.977	46227.31
337.202	46143.51
337.426	46063.65
337.651	45969.98
337.875	45891.02
338.1	45816.38
338.324	45728.78
338.549	45646.93
338.773	45565.15
338.997	45484.51
339.222	45406.15
339.446	45335.84
339.671	45253.16
339.895	45168.67
340.119	45101
340.344	45017.93
340.568	44946.22
340.792	44877.71
341.017	44803.44
341.241	44726
341.465	44640.4
341.689	44551.71
341.914	44458.84
342.138	44374.11
342.362	44288.53
342.586	44189.87
342.811	44095.02
343.035	43978.89
343.259	43878.27
343.483	43778.58
343.707	43680.4
343.931	43580.44
344.155	43495.09
344.38	43406.13
344.604	43320.71
344.828	43231
345.052	43145.93
345.276	43051.6
345.5	42979.73
345.724	42899.96
345.948	42816.93
346.172	42750.33
346.396	42674.22
346.62	42605.13
346.844	42529.04
347.068	42428.91
347.292	42336.15
347.515	42234.64
347.739	42144.45
347.963	42040.2
348.187	41950.96
348.411	41841.04
348.635	41725.47
348.859	41618.51
349.082	41488.11
349.306	41367.78
349.53	41261.62
349.754	41160.16
349.977	41058.38
350.201	40951.78
350.425	40857.25
350.649	40744.16
350.872	40657.69
351.096	40554.91
351.32	40457.27
351.543	40350.05
351.767	40248.96
351.99	40148.29
352.214	40032.71
352.438	39921.65
352.661	39813.47
352.885	39705.31
353.108	39596.53
353.332	39477.95
353.555	39368.13
353.779	39249.38
354.002	39147.33
354.226	39030.51
354.449	38921.45
354.673	38824.82
354.896	38718.87
355.12	38617.29
355.343	38502.02
355.566	38403.13
355.79	38305.02
356.013	38217.16
356.237	38125.89
356.46	38034.53
356.683	37933.93
356.907	37824.55
357.13	37721.22
357.353	37610.25
357.576	37516.96
357.8	37418.2
358.023	37308.96
358.246	37203.24
358.469	37082.84
358.693	36966.71
358.916	36845.67
359.139	36743.93
359.362	36640.04
359.585	36527.38
359.808	36441.64
360.031	36331.33
360.255	36234.05
360.478	36135.95
360.701	36038.15
360.924	35938.11
361.147	35849.58
361.37	35773.11
361.593	35689.42
361.816	35601.56
362.039	35521.64
362.262	35423.18
362.485	35333.07
362.708	35236.78
362.931	35140.76
363.154	35045.73
363.377	34962.25
363.599	34873.98
363.822	34784.58
364.045	34688.93
364.268	34607.24
364.491	34529.71
364.714	34469.91
364.936	34416.09
365.159	34387.8
365.382	34363.11
365.605	34354.51
365.828	34345.89
366.05	34330.76
366.273	34317.31
366.496	34313.55
366.718	34299.33
366.941	34258.67
367.164	34215.09
367.386	34158.02
367.609	34086.55
367.832	34005.13
368.054	33911.82
368.277	33798.89
368.5	33685.91
368.722	33550.73
368.945	33405.64
369.167	33265.71
369.39	33143.07
369.612	32999.93
369.835	32872.09
370.057	32745.58
370.28	32630.98
370.502	32511.4
370.725	32408.11
370.947	32309.67
371.169	32224.16
371.392	32150.6
371.614	32076.16
371.837	31998.31
372.059	31934.45
372.281	31875.24
372.504	31813.13
372.726	31746.22
372.948	31684.09
373.171	31639.82
373.393	31609.73
373.615	31584.93
373.837	31577.47
374.06	31585.02
374.282	31605.6
374.504	31625.02
374.726	31631.98
374.948	31634.11
375.17	31628.71
375.393	31626.89
375.615	31609.89
375.837	31596.27
376.059	31587.62
376.281	31591.27
376.503	31597.4
376.725	31609.58
376.947	31640.15
377.169	31674.27
377.391	31719.05
377.613	31789.15
377.835	31891.67
378.057	32014.16
378.279	32131.89
378.501	32213.36
378.723	32233.87
378.945	32223.18
379.167	32185.69
379.389	32156.25
379.611	32130.16
379.833	32080.24
380.054	32007.33
380.276	31882.22
380.498	31724.84
380.72	31575.4
380.942	31472.84
381.163	31434.35
381.385	31440.24
381.607	31464.56
381.829	31464.56
382.05	31431.09
382.272	31393.8
382.494	31362.69
382.716	31344.16
382.937	31344.05
383.159	31331.55
383.381	31302.35
383.602	31249.75
383.824	31176.62
384.045	31086.55
384.267	30991.73
384.488	30925.49
384.71	30880.15
384.932	30850.82
385.153	30842.62
385.375	30830.47
385.596	30835.67
385.818	30860.15
386.039	30913.91
386.261	30984.47
386.482	31084.44
386.703	31209.53
386.925	31343.35
387.146	31481.64
387.368	31615.56
387.589	31732.36
387.81	31822.93
388.032	31843.71
388.253	31793.49
388.474	31671.25
388.696	31523.02
388.917	31364.15
389.138	31200.73
389.359	31049.31
389.581	30900.89
389.802	30746.13
390.023	30616.18
390.244	30512.27
390.465	30462.02
390.687	30502.69
390.908	30628.47
391.129	30821.65
391.35	31052.33
391.571	31318.29
391.792	31605.78
392.013	31877.47
392.234	32106.05
392.455	32255.42
392.677	32347.53
392.898	32414.82
393.119	32443.53
393.34	32442.53
393.561	32388.53
393.782	32296.38
394.003	32132.13
394.223	31896.42
394.444	31651.22
394.665	31434.96
394.886	31285.35
395.107	31195.15
395.328	31147.82
395.549	31131.62
395.77	31111.85
395.99	31107.45
396.211	31133.29
396.432	31221.49
396.653	31382.71
396.874	31610.07
397.094	31887.11
397.315	32190.42
397.536	32501.98
397.757	32752.29
397.977	32916.24
398.198	33006.33
398.419	33037.33
398.639	33010.45
398.86	32921.49
399.081	32743.04
399.301	32498.47
399.522	32225.64
399.742	31925.71
399.963	31623.91
400.184	31358.25
400.404	31112.58
400.625	30901.16
400.845	30716.45
401.066	30551.87
401.286	30409.58
401.507	30323.45
401.727	30260.38
401.948	30186.58
402.168	30099.35
402.388	30010.07
402.609	29930.11
402.829	29909.07
403.05	29928.62
403.27	29967.8
403.49	30038.93
403.711	30136.78
403.931	30260.64
404.151	30400.91
404.372	30559.44
404.592	30712.29
404.812	30828.53
405.032	30879.4
405.253	30841.69
405.473	30741.27
405.693	30601.71
405.913	30405.33
406.133	30157.25
406.353	29870.87
406.574	29553.91
406.794	29234.73
407.014	28951.93
407.234	28732.44
407.454	28604.8
407.674	28548.07
407.894	28534.24
408.114	28539.33
408.334	28563.96
408.554	28611.42
408.774	28687.44
408.994	28773.22
409.214	28817.38
409.434	28792.36
409.654	28700.09
409.874	28584.58
410.094	28467.53
410.314	28356.29
410.534	28266.11
410.754	28185.89
410.974	28150.2
411.193	28121.62
411.413	28141.44
411.633	28226.13
411.853	28360.95
412.073	28518.18
412.292	28665.33
412.512	28780.96
412.732	28877.85
412.952	28923.36
413.171	28928.49
413.391	28875.15
413.611	28794.98
413.831	28672.22
414.05	28518.04
414.27	28343.4
414.489	28165.29
414.709	27982.05
414.929	27816.85
415.148	27680.18
415.368	27586.42
415.587	27527.84
415.807	27472.64
416.026	27398.31
416.246	27317
416.465	27240.24
416.685	27165.13
416.904	27097.29
417.124	27035.84
417.343	26976.24
417.563	26919.85
417.782	26866.11
418.002	26833.73
418.221	26822.51
418.44	26837.22
418.66	26859.45
418.879	26885.04
419.098	26936.93
419.318	27040.16
419.537	27191.85
419.756	27385.62
419.976	27627.65
420.195	27929.84
420.414	28277.07
420.633	28671.4
420.853	29051.09
421.072	29388.44
421.291	29664.55
421.51	29893.02
421.729	30054.93
421.948	30171.35
422.168	30272.91
422.387	30317.09
422.606	30256.58
422.825	30069.25
423.044	29778.58
423.263	29446.4
423.482	29148.07
423.701	28910.91
423.92	28716.27
424.139	28530.29
424.358	28318.33
424.577	28025.38
424.796	27675.27
425.015	27332.04
425.234	27036.82
425.453	26811.27
425.672	26651.55
425.891	26555.33
426.11	26526.95
426.328	26579.07
426.547	26667.18
426.766	26719.78
426.985	26748.56
427.204	26757.42
427.422	26790.73
427.641	26866.84
427.86	26950.6
428.079	27059.44
428.297	27195.8
428.516	27358.91
428.735	27512.58
428.954	27692.89
429.172	27927.98
429.391	28206.02
429.61	28514.07
429.828	28791.38
430.047	28966.04
430.265	29029.89
430.484	28955.85
430.703	28708.56
430.921	28305.04
431.14	27781.45
431.358	27216.22
431.577	26659.35
431.795	26153.44
432.014	25723.53
432.232	25448.98
432.451	25397.07
432.669	25602.78
432.887	25960.29
433.106	26298.07
433.324	26526.09
433.543	26629.44
433.761	26665.55
433.979	26738.78
434.198	26828.13
434.416	26878.53
434.634	26809.78
