Data from blank_MAYP1115451__0__11-52-51-420.txt Node

Date: Thu May 30 11:52:51 MDT 2024
User: Modes Lab
Spectrometer: MAYP111545
Trigger mode: 0
Integration Time (sec): 7.200000E-3
Scans to average: 5
Electric dark correction enabled: true
Nonlinearity correction enabled: false
Boxcar width: 5
XAxis mode: Wavelengths
Number of Pixels in Spectrum: 2068
>>>>>Begin Spectral Data<<<<<
165.214	5332.03
165.449	4591.52
165.683	4046.43
165.918	3625.52
166.152	3288.41
166.387	3011.51
166.621	119.52
166.856	157.16
167.09	175.63
167.325	198.43
167.559	215.2
167.794	231.42
168.028	239.29
168.263	240.4
168.497	238.87
168.732	238.14
168.966	238.45
169.2	238.6
169.435	239.72
169.669	240.63
169.903	241.14
170.138	242.03
170.372	242.07
170.606	241.83
170.841	241.82
171.075	241.51
171.309	241.03
171.544	240.94
171.778	241.67
172.012	242.51
172.246	242.12
172.48	242.43
172.715	243.63
172.949	244.63
173.183	246.27
173.417	247.02
173.651	248.4
173.885	249.8
174.119	250.47
174.354	251.32
174.588	250.43
174.822	251.29
175.056	252
175.29	252.27
175.524	252
175.758	252.94
175.992	253.29
176.226	254.25
176.46	253.54
176.694	253.8
176.928	254.31
177.162	256.07
177.396	256.27
177.63	257.38
177.864	257.74
178.097	258.74
178.331	259.38
178.565	260.47
178.799	261.05
179.033	263
179.267	264.2
179.5	266.09
179.734	266.76
179.968	268.82
180.202	269.72
180.436	271.72
180.669	273.2
180.903	274.69
181.137	276.63
181.371	279.18
181.604	282.31
181.838	285.74
182.072	289.51
182.305	293.8
182.539	297.85
182.772	303.69
183.006	309.34
183.24	315.98
183.473	325.02
183.707	333.91
183.94	343.32
184.174	354.89
184.408	368.2
184.641	381.36
184.875	396.96
185.108	412.23
185.342	427.58
185.575	446.34
185.808	469.36
186.042	492.83
186.275	517.8
186.509	544.14
186.742	567.62
186.976	590.87
187.209	615.8
187.442	645.65
187.676	679.8
187.909	716
188.142	751.25
188.376	785.65
188.609	817.36
188.842	850.43
189.076	882.67
189.309	919.56
189.542	960.85
189.775	1007.62
190.009	1053.31
190.242	1096.56
190.475	1140.82
190.708	1183.45
190.941	1223.25
191.174	1266.09
191.408	1312.65
191.641	1364.36
191.874	1419.2
192.107	1474.36
192.34	1524.12
192.573	1575.65
192.806	1628.67
193.039	1678.98
193.272	1731.83
193.505	1787.02
193.738	1845.47
193.971	1903.43
194.204	1958.71
194.437	2013.2
194.67	2064.36
194.903	2117.22
195.136	2170.82
195.369	2225.96
195.602	2282.34
195.835	2342.91
196.068	2404.49
196.301	2463.25
196.533	2522.12
196.766	2582.25
196.999	2642.8
197.232	2704.31
197.465	2765.8
197.698	2824.67
197.93	2886.74
198.163	2953.47
198.396	3020.36
198.629	3085.31
198.861	3153.71
199.094	3222.62
199.327	3293.11
199.559	3362.91
199.792	3438.29
200.025	3513.72
200.257	3593.45
200.49	3673.76
200.723	3753.12
200.955	3835.16
201.188	3921.58
201.42	4011.16
201.653	4101.49
201.886	4191.42
202.118	4284.78
202.351	4380.34
202.583	4480.52
202.816	4577.49
203.048	4681.45
203.281	4788.96
203.513	4894.34
203.745	5006.32
203.978	5120.03
204.21	5235.74
204.443	5356.02
204.675	5478.03
204.907	5602.58
205.14	5730.12
205.372	5865.89
205.605	5992.6
205.837	6124.14
206.069	6262.71
206.302	6402.47
206.534	6543.12
206.766	6687.96
206.998	6833.91
207.231	6985.31
207.463	7138.12
207.695	7301.87
207.927	7463.12
208.159	7628.98
208.392	7799.47
208.624	7967.96
208.856	8146.16
209.088	8319.6
209.32	8500.6
209.552	8682.8
209.784	8870.14
210.017	9058.78
210.249	9242.2
210.481	9432.16
210.713	9629.47
210.945	9827.38
211.177	10021.78
211.409	10221.42
211.641	10433.4
211.873	10644.16
212.105	10862.6
212.337	11077.23
212.569	11304.07
212.801	11530.05
213.033	11762.27
213.264	12002.2
213.496	12242.78
213.728	12504.14
213.96	12753.2
214.192	13009.29
214.424	13270.36
214.656	13532.65
214.887	13801.78
215.119	14068.62
215.351	14345.43
215.583	14615.16
215.815	14891.94
216.046	15173.05
216.278	15449.89
216.51	15740.2
216.741	16018.34
216.973	16294.94
217.205	16591.47
217.436	16887.4
217.668	17177.03
217.9	17468.87
218.131	17767.54
218.363	18063.47
218.595	18371.83
218.826	18677.4
219.058	18989.65
219.289	19307.11
219.521	19639.34
219.752	19944.83
219.984	20257.56
220.215	20582.72
220.447	20914.6
220.678	21251.52
220.91	21583.03
221.141	21907.67
221.373	22247.89
221.604	22585.89
221.836	22930.11
222.067	23265.83
222.298	23621.4
222.53	23975.76
222.761	24325.87
222.993	24680.76
223.224	25032.36
223.455	25396.25
223.686	25749.42
223.918	26103.54
224.149	26456.58
224.38	26813.91
224.612	27179.18
224.843	27550.03
225.074	27913.65
225.305	28280.71
225.536	28630.78
225.768	28991.54
225.999	29351.67
226.23	29719.87
226.461	30070.8
226.692	30425.62
226.923	30786.82
227.155	31147.94
227.386	31499.22
227.617	31857.94
227.848	32223.09
228.079	32602.74
228.31	32974
228.541	33341.74
228.772	33703.47
229.003	34088.49
229.234	34460.42
229.465	34831.71
229.696	35194.65
229.927	35557.87
230.158	35913.96
230.389	36280.09
230.62	36641.42
230.85	37004.83
231.081	37367.12
231.312	37728.52
231.543	38069.05
231.774	38419.83
232.005	38766.83
232.236	39117.16
232.466	39468.45
232.697	39818.6
232.928	40139.32
233.159	40452.94
233.389	40762.16
233.62	41070.92
233.851	41365.34
234.082	41658.89
234.312	41951.09
234.543	42226.85
234.774	42501.12
235.004	42753.34
235.235	42995.63
235.466	43239.29
235.696	43482.96
235.927	43721.02
236.157	43945.02
236.388	44178.6
236.618	44415.67
236.849	44629.91
237.08	44845.14
237.31	45047.96
237.541	45248.56
237.771	45447.23
238.002	45645.51
238.232	45838.62
238.463	46029.67
238.693	46214.38
238.923	46389.69
239.154	46551.91
239.384	46708.29
239.615	46855.47
239.845	46999.56
240.075	47153.34
240.306	47307.49
240.536	47443.72
240.766	47573.02
240.997	47700.58
241.227	47830.85
241.457	47952.02
241.687	48070.22
241.918	48200.29
242.148	48328.51
242.378	48443.6
242.608	48555.05
242.839	48665.6
243.069	48780.58
243.299	48889.69
243.529	48990.76
243.759	49082.11
243.989	49193.96
244.22	49307.43
244.45	49409.52
244.68	49512.89
244.91	49615.74
245.14	49715.74
245.37	49827.82
245.6	49925.51
245.83	50032.43
246.06	50142.58
246.29	50249.51
246.52	50341.25
246.75	50433.07
246.98	50530.82
247.21	50623.03
247.44	50725.02
247.67	50827.36
247.9	50905.36
248.13	50999.51
248.359	51098.74
248.589	51182.25
248.819	51284.54
249.049	51390.2
249.279	51494.63
249.509	51576.98
249.738	51666.42
249.968	51746.07
250.198	51814.36
250.428	51894.49
250.657	51976.96
250.887	52047.45
251.117	52123.63
251.347	52203.23
251.576	52274.98
251.806	52339.02
252.036	52418.07
252.265	52485.8
252.495	52565.31
252.725	52648.74
252.954	52716.52
253.184	52787.96
253.413	52850.45
253.643	52920.56
253.873	52961.27
254.102	53007.58
254.332	53050.32
254.561	53095.87
254.791	53151.8
255.02	53212.74
255.25	53276.8
255.479	53328.43
255.708	53375.6
255.938	53416.34
256.167	53464.62
256.397	53506.43
256.626	53541.6
256.856	53577.62
257.085	53604.82
257.314	53629.45
257.544	53627.03
257.773	53626.32
258.002	53646.23
258.232	53667.62
258.461	53710.45
258.69	53736.56
258.919	53769.07
259.149	53800.49
259.378	53834.69
259.607	53875.45
259.836	53918.65
260.065	53967.09
260.295	54008.31
260.524	54055.91
260.753	54096.25
260.982	54129.38
261.211	54160.03
261.44	54197.91
261.669	54245.12
261.899	54295.14
262.128	54329.6
262.357	54364.98
262.586	54404.8
262.815	54434.78
263.044	54466.22
263.273	54496.92
263.502	54516.32
263.731	54543.6
263.96	54558.51
264.189	54567.22
264.418	54587.2
264.646	54617.23
264.875	54646.43
265.104	54675.91
265.333	54713.72
265.562	54745.56
265.791	54782.76
266.02	54803.63
266.249	54835.56
266.477	54872.18
266.706	54920.22
266.935	54947.87
267.164	55004.45
267.393	55058.85
267.621	55116.67
267.85	55175.83
268.079	55240.56
268.307	55296.76
268.536	55370.31
268.765	55434.38
268.993	55532.02
269.222	55611.29
269.451	55704.52
269.679	55780.29
269.908	55861.63
270.137	55940.36
270.365	56020.14
270.594	56094.82
270.822	56194
271.051	56311.09
271.279	56434.51
271.508	56526.96
271.736	56636.38
271.965	56752.52
272.193	56861.4
272.422	56975.69
272.65	57093.74
272.879	57227.32
273.107	57363.25
273.336	57487.07
273.564	57592.03
273.792	57693.94
274.021	57820.34
274.249	57946.27
274.477	58068.31
274.706	58208.85
274.934	58340.43
275.162	58481.2
275.391	58618
275.619	58756.16
275.847	58896.6
276.075	59063.69
276.304	59220.69
276.532	59370.11
276.76	59529.91
276.988	59695.6
277.216	59853.92
277.445	60010.32
277.673	60164.82
277.901	60325.09
278.129	60483.34
278.357	60635.05
278.585	60762.78
278.813	60889.2
279.041	61002.87
279.269	61096.03
279.497	61168.49
279.725	61225.78
279.954	61276.02
280.182	61312.6
280.41	61328.85
280.637	61338.62
280.865	61339.83
281.093	61339.83
281.321	61339.83
281.549	61339.83
281.777	61339.83
282.005	61339.83
282.233	61339.83
282.461	61339.83
282.689	61339.83
282.916	61339.83
283.144	61339.83
283.372	61339.83
283.6	61339.83
283.828	61339.83
284.055	61339.83
284.283	61339.83
284.511	61339.83
284.739	61339.83
284.966	61339.83
285.194	61339.83
285.422	61339.83
285.649	61339.83
285.877	61339.83
286.105	61339.83
286.332	61339.83
286.56	61339.83
286.788	61339.83
287.015	61339.83
287.243	61339.83
287.47	61339.83
287.698	61339.83
287.925	61339.83
288.153	61339.83
288.381	61339.83
288.608	61339.83
288.836	61339.83
289.063	61339.83
289.29	61339.83
289.518	61339.83
289.745	61339.83
289.973	61339.83
290.2	61339.83
290.428	61339.83
290.655	61339.83
290.882	61339.83
291.11	61339.83
291.337	61339.83
291.564	61339.83
291.792	61339.83
292.019	61339.83
292.246	61339.83
292.473	61339.83
292.701	61339.83
292.928	61339.83
293.155	61339.83
293.382	61339.83
293.61	61339.83
293.837	61339.83
294.064	61339.83
294.291	61339.83
294.518	61339.83
294.745	61339.83
294.972	61339.83
295.2	61339.83
295.427	61339.83
295.654	61339.83
295.881	61339.83
296.108	61339.83
296.335	61339.83
296.562	61339.83
296.789	61339.83
297.016	61339.83
297.243	61339.83
297.47	61339.83
297.697	61339.83
297.924	61339.83
298.151	61339.83
298.378	61339.83
298.604	61339.83
298.831	61339.83
299.058	61339.83
299.285	61339.83
299.512	61339.83
299.739	61339.83
299.966	61339.83
300.192	61339.83
300.419	61339.83
300.646	61339.83
300.873	61339.83
301.099	61339.83
301.326	61339.83
301.553	61339.83
301.78	61339.83
302.006	61339.83
302.233	61339.83
302.46	61339.83
302.686	61339.83
302.913	61339.83
303.14	61339.83
303.366	61339.83
303.593	61339.83
303.819	61339.83
304.046	61339.83
304.272	61339.83
304.499	61339.83
304.725	61339.83
304.952	61339.83
305.179	61339.83
305.405	61339.83
305.631	61339.83
305.858	61339.83
306.084	61339.83
306.311	61339.83
306.537	61339.83
306.764	61339.83
306.99	61339.83
307.216	61339.83
307.443	61339.83
307.669	61339.83
307.895	61339.83
308.122	61339.83
308.348	61339.83
308.574	61339.83
308.801	61339.83
309.027	61339.83
309.253	61339.83
309.479	61339.83
309.706	61339.83
309.932	61339.83
310.158	61339.83
310.384	61339.83
310.61	61339.83
310.837	61339.83
311.063	61339.83
311.289	61339.83
311.515	61339.83
311.741	61339.83
311.967	61339.83
312.193	61339.83
312.419	61339.83
312.645	61339.83
312.871	61339.83
313.097	61339.83
313.323	61339.83
313.549	61339.83
313.775	61339.83
314.001	61339.83
314.227	61339.83
314.453	61339.83
314.679	61339.83
314.905	61339.83
315.131	61339.83
315.357	61339.83
315.583	61339.83
315.809	61339.83
316.034	61339.83
316.26	61339.83
316.486	61339.83
316.712	61339.83
316.938	61339.83
317.163	61339.83
317.389	61339.83
317.615	61339.83
317.841	61339.83
318.066	61339.83
318.292	61339.83
318.518	61339.83
318.743	61339.83
318.969	61339.83
319.195	61339.83
319.42	61339.83
319.646	61339.83
319.872	61339.83
320.097	61339.83
320.323	61339.83
320.548	61339.83
320.774	61339.83
320.999	61339.83
321.225	61339.83
321.45	61339.83
321.676	61339.83
321.901	61339.83
322.127	61339.83
322.352	61339.83
322.578	61339.83
322.803	61339.83
323.029	61339.83
323.254	61339.83
323.479	61339.83
323.705	61339.83
323.93	61339.83
324.155	61339.83
324.381	61339.83
324.606	61339.83
324.831	61339.83
325.057	61339.83
325.282	61339.83
325.507	61339.83
325.732	61339.83
325.958	61339.83
326.183	61339.83
326.408	61339.83
326.633	61339.83
326.858	61339.83
327.084	61339.83
327.309	61339.83
327.534	61339.83
327.759	61339.83
327.984	61336.29
328.209	61333.82
328.434	61328.09
328.659	61320.71
328.884	61308.96
329.109	61288.71
329.334	61256.07
329.559	61203.58
329.784	61149.52
330.009	61087.32
330.234	61010.11
330.459	60927.52
330.684	60836.62
330.909	60734.71
331.134	60619.96
331.359	60507.72
331.584	60396.49
331.809	60295.54
332.034	60184.82
332.259	60075.58
332.483	59977.05
332.708	59873.38
332.933	59771.87
333.158	59667.62
333.383	59583.27
333.607	59499.65
333.832	59399.07
334.057	59307.69
334.282	59209.56
334.506	59130.31
334.731	59042.34
334.956	58948.54
335.18	58861.23
335.405	58771.09
335.63	58684.76
335.854	58578.6
336.079	58478.76
336.303	58387.02
336.528	58281.56
336.753	58168.32
336.977	58070.6
337.202	57955.62
337.426	57849.63
337.651	57756.43
337.875	57649.29
338.1	57544.8
338.324	57438.91
338.549	57338.05
338.773	57239.91
338.997	57150.52
339.222	57066.74
339.446	56964.82
339.671	56879.89
339.895	56780.4
340.119	56677.89
340.344	56595.6
340.568	56495.25
340.792	56401.94
341.017	56304.2
341.241	56195.8
341.465	56077.32
341.689	55968.03
341.914	55863.92
342.138	55749.74
342.362	55642.11
342.586	55530.23
342.811	55400.94
343.035	55294.74
343.259	55176.65
343.483	55046.63
343.707	54938.63
343.931	54834.14
344.155	54713.52
344.38	54595.74
344.604	54503.42
344.828	54403.69
345.052	54290.54
345.276	54188.02
345.5	54073.02
345.724	53969.03
345.948	53881.78
346.172	53787.03
346.396	53684.85
346.62	53584.91
346.844	53485.63
347.068	53367.12
347.292	53235.09
347.515	53105.54
347.739	52986.14
347.963	52855.98
348.187	52726.91
348.411	52585.09
348.635	52441.89
348.859	52287.49
349.082	52156.43
349.306	52010.25
349.53	51866.56
349.754	51735.43
349.977	51616.96
350.201	51481.05
350.425	51371.09
350.649	51235.14
350.872	51114.92
351.096	50991.47
351.32	50890.52
351.543	50751.38
351.767	50628.98
351.99	50500.6
352.214	50371.87
352.438	50243.58
352.661	50113.07
352.885	49967.83
353.108	49836.09
353.332	49699.8
353.555	49553.87
353.779	49412.38
354.002	49286.96
354.226	49149.83
354.449	49021.43
354.673	48891.22
354.896	48744.2
355.12	48606.16
355.343	48484.47
355.566	48362.52
355.79	48236.49
356.013	48118.25
356.237	47991.62
356.46	47861.32
356.683	47728.18
356.907	47590.91
357.13	47448.07
357.353	47334.32
357.576	47214.85
357.8	47084.78
358.023	46959.6
358.246	46820.72
358.469	46680.25
358.693	46542.63
358.916	46407.34
359.139	46282.18
359.362	46151.05
359.585	46035.34
359.808	45889.74
360.031	45771.78
360.255	45640.4
360.478	45510.14
360.701	45391.76
360.924	45277.14
361.147	45170.58
361.37	45068.58
361.593	44962.03
361.816	44857.02
362.039	44746.69
362.262	44649.05
362.485	44524.43
362.708	44397.91
362.931	44276.22
363.154	44160.36
363.377	44049.52
363.599	43922.38
363.822	43812.89
364.045	43712.16
364.268	43607.36
364.491	43506.78
364.714	43427.43
364.936	43367.91
365.159	43325.52
365.382	43300.23
365.605	43282.22
365.828	43267.22
366.05	43257.82
366.273	43236.92
366.496	43216.54
366.718	43195.74
366.941	43163.32
367.164	43102.49
367.386	43027.6
367.609	42954.92
367.832	42862.22
368.054	42758.18
368.277	42626.29
368.5	42485.6
368.722	42316.11
368.945	42134.31
369.167	41956.02
369.39	41784.4
369.612	41627.03
369.835	41478.47
370.057	41322.31
370.28	41163.56
370.502	41014.87
370.725	40897.16
370.947	40792.98
371.169	40707.56
371.392	40621.45
371.614	40547.8
371.837	40467.62
372.059	40386.36
372.281	40300.52
372.504	40221.36
372.726	40154.4
372.948	40095.69
373.171	40033.51
373.393	39996.42
373.615	39971.54
373.837	39983.6
374.06	40012.91
374.282	40068.72
374.504	40113.16
374.726	40144.32
374.948	40169.91
375.17	40174.56
375.393	40155.87
375.615	40159.74
375.837	40144.34
376.059	40146.67
376.281	40150.2
376.503	40149.83
376.725	40158.09
376.947	40187.03
377.169	40238.47
377.391	40307.89
377.613	40422.82
377.835	40591.78
378.057	40756.4
378.279	40925.87
378.501	41043.25
378.723	41080.38
378.945	41070.98
379.167	41036
379.389	41001.58
379.611	40969.34
379.833	40908.52
380.054	40797.45
380.276	40619.27
380.498	40424.07
380.72	40228.87
380.942	40098.14
381.163	40070.65
381.385	40104.69
381.607	40144.14
381.829	40155.05
382.05	40122.91
382.272	40081.27
382.494	40062.09
382.716	40069.65
382.937	40074.74
383.159	40084.91
383.381	40065.89
383.602	40006.89
383.824	39909.16
384.045	39792.71
384.267	39698.05
384.488	39629.76
384.71	39588.63
384.932	39571.22
385.153	39554.65
385.375	39541.25
385.596	39548.72
385.818	39588.14
386.039	39661.83
386.261	39772.54
386.482	39925.31
386.703	40083.42
386.925	40262.47
387.146	40450.89
387.368	40627.36
387.589	40801.51
387.81	40924.96
388.032	40951.52
388.253	40880.47
388.474	40731.45
388.696	40532.85
388.917	40320.07
389.138	40116.31
389.359	39914.94
389.581	39711.72
389.802	39524.27
390.023	39350.23
390.244	39224.54
390.465	39192.31
390.687	39271.45
390.908	39426.85
391.129	39686.4
391.35	39994.52
391.571	40356.18
391.792	40741.32
392.013	41107.72
392.234	41391.49
392.455	41571.58
392.677	41695.42
392.898	41747.67
393.119	41771.43
393.34	41777.92
393.561	41719.47
393.782	41595.25
394.003	41372.2
394.223	41075.87
394.444	40745.82
394.665	40467.78
394.886	40285.31
395.107	40178.62
395.328	40141.76
395.549	40119.85
395.77	40088.43
395.99	40076.03
396.211	40115.05
396.432	40235.18
396.653	40441.51
396.874	40743.87
397.094	41110.94
397.315	41514.94
397.536	41911.36
397.757	42227.89
397.977	42441.2
398.198	42566.27
398.419	42608.96
398.639	42581.22
398.86	42443.42
399.081	42197.8
399.301	41883.91
399.522	41517
399.742	41118.72
399.963	40731.27
400.184	40372.29
400.404	40058.16
400.625	39767.32
400.845	39517.72
401.066	39297.8
401.286	39144.11
401.507	39051.27
401.727	38966.38
401.948	38861.43
402.168	38751.29
402.388	38638.34
402.609	38558.42
402.829	38513.11
403.05	38544.71
403.27	38600.2
403.49	38693.07
403.711	38815.14
403.931	38978.63
404.151	39177.49
404.372	39407.76
404.592	39623.27
404.812	39767
405.032	39814.6
405.253	39777.83
405.473	39655.14
405.693	39470.94
405.913	39209.32
406.133	38891.02
406.353	38505.83
406.574	38082.07
406.794	37660.11
407.014	37286.09
407.234	37012.8
407.454	36862.87
407.674	36798.36
407.894	36775.76
408.114	36789.09
408.334	36820.31
408.554	36881.98
408.774	36995.25
408.994	37099.52
409.214	37157.96
409.434	37121.69
409.654	36987.25
409.874	36825.92
410.094	36672.58
410.314	36539.07
410.534	36417.63
410.754	36337.83
410.974	36284.12
411.193	36254.62
411.413	36309.89
411.633	36416.96
411.853	36598
412.073	36822.34
412.292	37017.52
412.512	37177.23
412.732	37289.47
412.952	37347.78
413.171	37331.07
413.391	37255.89
413.611	37136.62
413.831	36955.14
414.05	36761.29
414.27	36534
414.489	36290.76
414.709	36050.02
414.929	35836.54
415.148	35667.83
415.368	35553.76
415.587	35487.98
415.807	35417.87
416.026	35327.72
416.246	35229.29
416.465	35124.67
416.685	35034.09
416.904	34960.51
417.124	34887.62
417.343	34807.49
417.563	34733.29
417.782	34665.34
418.002	34627.92
418.221	34623.71
418.44	34651.63
418.66	34680.2
418.879	34708.83
419.098	34781.78
419.318	34929.65
419.537	35147.11
419.756	35426.29
419.976	35754.45
420.195	36166.2
420.414	36638.54
420.633	37155.8
420.853	37656.09
421.072	38110.51
421.291	38479.27
421.51	38759.78
421.729	38953.74
421.948	39109.12
422.168	39233.02
422.387	39298.69
422.606	39228.98
422.825	38976.11
423.044	38587.49
423.263	38137.74
423.482	37733.67
423.701	37437.89
423.92	37189.89
424.139	36964.98
424.358	36671.09
424.577	36271.6
424.796	35810.96
425.015	35341.83
425.234	34948.78
425.453	34658.54
425.672	34458.22
425.891	34346.43
426.11	34341.27
426.328	34456.03
426.547	34558.36
426.766	34636.85
426.985	34659.62
427.204	34656.56
427.422	34710.69
427.641	34819.31
427.86	34938.22
428.079	35084.05
428.297	35275.89
428.516	35473.83
428.735	35660.8
428.954	35910.11
429.172	36213.67
429.391	36596.91
429.61	37033.62
429.828	37392.54
430.047	37627.25
430.265	37709.2
430.484	37611.82
430.703	37274.96
430.921	36722.23
431.14	36027.31
431.358	35284.11
431.577	34575.52
431.795	33924.34
432.014	33337.27
432.232	32967.27
432.451	32931.2
432.669	33257.8
432.887	33731.16
433.106	34165.02
433.324	34433.85
433.543	34510.83
433.761	34558.83
