Data from blue_MAYP1115451__0__10-42-33-389.txt Node

Date: Thu Jun 13 10:42:33 MDT 2024
User: Modes Lab
Spectrometer: MAYP111545
Trigger mode: 0
Integration Time (sec): 2.260000E-2
Scans to average: 5
Electric dark correction enabled: true
Nonlinearity correction enabled: false
Boxcar width: 5
XAxis mode: Wavelengths
Number of Pixels in Spectrum: 2068
>>>>>Begin Spectral Data<<<<<
165.214	178.67
165.449	198.71
165.683	237.5
165.918	271.91
166.152	297.06
166.387	317.82
166.621	274.73
166.856	340.07
167.09	385.56
167.325	434.13
167.559	473.64
167.794	508.07
168.028	526.62
168.263	528.8
168.497	528.04
168.732	531.67
168.966	533.76
169.2	534.82
169.435	536.65
169.669	537.64
169.903	539.16
170.138	542.55
170.372	544.8
170.606	547.11
170.841	547.55
171.075	550.15
171.309	548.67
171.544	548.58
171.778	549.29
172.012	549.76
172.246	551.65
172.48	552.64
172.715	553.58
172.949	554.84
173.183	557.04
173.417	560.02
173.651	561.2
173.885	563.49
174.119	565.29
174.354	567.02
174.588	567.95
174.822	567.24
175.056	568.47
175.29	568.15
175.524	567.55
175.758	567.35
175.992	567.2
176.226	565.95
176.46	566.49
176.694	567.69
176.928	569.55
177.162	570.22
177.396	572.18
177.63	573.85
177.864	575.49
178.097	578
178.331	579.53
178.565	581.73
178.799	583.38
179.033	583.76
179.267	584.16
179.5	583.67
179.734	585.67
179.968	587.84
180.202	587.36
180.436	590.29
180.669	592.02
180.903	591.44
181.137	592.51
181.371	594.47
181.604	596.24
181.838	597.84
182.072	600.16
182.305	602.75
182.539	604.8
182.772	607.16
183.006	608.07
183.24	609.09
183.473	618.58
183.707	622.51
183.94	624.75
184.174	628.07
184.408	631.51
184.641	636.78
184.875	640.91
185.108	647.04
185.342	654.42
185.575	662.15
185.808	672.45
186.042	678.71
186.275	687.24
186.509	698.6
186.742	712.2
186.976	726.22
187.209	739.95
187.442	755.45
187.676	771.82
187.909	791.31
188.142	810.36
188.376	829.89
188.609	848.29
188.842	869.6
189.076	892.35
189.309	916.53
189.542	943.24
189.775	971.73
190.009	1002.6
190.242	1031.6
190.475	1062.44
190.708	1092.87
190.941	1121.42
191.174	1151.85
191.408	1185.71
191.641	1222.65
191.874	1259.55
192.107	1297.35
192.34	1332.42
192.573	1367.04
192.806	1404.85
193.039	1439.78
193.272	1477
193.505	1515.55
193.738	1556.73
193.971	1597.25
194.204	1635.8
194.437	1675.78
194.67	1713.42
194.903	1754.69
195.136	1795.98
195.369	1839.15
195.602	1882.33
195.835	1928.87
196.068	1977.51
196.301	2024.76
196.533	2071.82
196.766	2120.98
196.999	2169.22
197.232	2218.16
197.465	2267.18
197.698	2317.09
197.93	2367.96
198.163	2419.65
198.396	2473
198.629	2527.35
198.861	2582.2
199.094	2638.31
199.327	2695.84
199.559	2752.49
199.792	2811.85
200.025	2871.05
200.257	2933.25
200.49	2992.65
200.723	3054.95
200.955	3116.22
201.188	3178.56
201.42	3245.78
201.653	3311.62
201.886	3373.85
202.118	3440.05
202.351	3508.93
202.583	3575.73
202.816	3641.31
203.048	3710.02
203.281	3779.18
203.513	3850.67
203.745	3922.55
203.978	3993.16
204.21	4066.82
204.443	4143.95
204.675	4218.6
204.907	4293.45
205.14	4375.93
205.372	4458.93
205.605	4539.85
205.837	4623.64
206.069	4709.04
206.302	4795.15
206.534	4880.87
206.766	4963.8
206.998	5053.96
207.231	5143.02
207.463	5233.96
207.695	5329.29
207.927	5419.58
208.159	5517.24
208.392	5614.35
208.624	5709.16
208.856	5807.98
209.088	5908.56
209.32	6016.56
209.552	6119.38
209.784	6230.6
210.017	6344.27
210.249	6447
210.481	6562.73
210.713	6672.31
210.945	6784.38
211.177	6900.87
211.409	7018.96
211.641	7139.13
211.873	7263.56
212.105	7387.38
212.337	7515.56
212.569	7637.25
212.801	7771.47
213.033	7905
213.264	8042.93
213.496	8184.07
213.728	8331
213.96	8477.85
214.192	8620.96
214.424	8761.31
214.656	8911.44
214.887	9057.93
215.119	9218
215.351	9375.29
215.583	9531.85
215.815	9688.55
216.046	9850.33
216.278	10005.8
216.51	10163.76
216.741	10333.42
216.973	10500.89
217.205	10672.51
217.436	10841.51
217.668	11011.24
217.9	11180.2
218.131	11350.93
218.363	11527.6
218.595	11700.45
218.826	11874.56
219.058	12057.62
219.289	12233.73
219.521	12416.11
219.752	12596.67
219.984	12784.25
220.215	12971.35
220.447	13156.51
220.678	13344.53
220.91	13533.8
221.141	13730.09
221.373	13929.98
221.604	14117.78
221.836	14310.42
222.067	14499.71
222.298	14696.05
222.53	14892.42
222.761	15090.49
222.993	15297.13
223.224	15503.67
223.455	15712.15
223.686	15907.18
223.918	16109.35
224.149	16321.69
224.38	16536.58
224.612	16750.11
224.843	16955.56
225.074	17159.78
225.305	17365.76
225.536	17566.51
225.768	17774.36
225.999	17975.95
226.23	18182.49
226.461	18383.38
226.692	18578
226.923	18774.82
227.155	18977.07
227.386	19168.82
227.617	19366.04
227.848	19562.16
228.079	19758.82
228.31	19947.4
228.541	20144.53
228.772	20344.2
229.003	20536.09
229.234	20728.35
229.465	20911.2
229.696	21096.15
229.927	21292.69
230.158	21480.53
230.389	21667.44
230.62	21859.56
230.85	22042.75
231.081	22221.84
231.312	22398.38
231.543	22574.36
231.774	22753.45
232.005	22937.84
232.236	23117.82
232.466	23294.67
232.697	23471.36
232.928	23631
233.159	23790.29
233.389	23939.29
233.62	24086.44
233.851	24225.4
234.082	24366.55
234.312	24495.42
234.543	24617.96
234.774	24729.22
235.004	24831.4
235.235	24922.49
235.466	25025.44
235.696	25113.91
235.927	25211.27
236.157	25301.71
236.388	25393.95
236.618	25469.42
236.849	25545.53
237.08	25619.64
237.31	25692.91
237.541	25764.09
237.771	25838.53
238.002	25906.89
238.232	25973.8
238.463	26035.25
238.693	26101.51
238.923	26152.93
239.154	26213.35
239.384	26264.09
239.615	26310.33
239.845	26356.11
240.075	26406.69
240.306	26452.73
240.536	26483.31
240.766	26510.98
240.997	26545.16
241.227	26569.44
241.457	26598.8
241.687	26625.51
241.918	26656.53
242.148	26680.95
242.378	26714.67
242.608	26733.6
242.839	26749.64
243.069	26768.22
243.299	26790.76
243.529	26809.33
243.759	26815.95
243.989	26828.89
244.22	26844.78
244.45	26860.96
244.68	26879.95
244.91	26880.27
245.14	26884.13
245.37	26885.73
245.6	26900.95
245.83	26908.73
246.06	26913.91
246.29	26925.64
246.52	26927.27
246.75	26928.27
246.98	26934.56
247.21	26933.67
247.44	26940.13
247.67	26952.2
247.9	26964.38
248.13	26964
248.359	26966.96
248.589	26965.18
248.819	26968.91
249.049	26975.55
249.279	26971.18
249.509	26959.85
249.738	26958.25
249.968	26945.62
250.198	26927
250.428	26910.15
250.657	26897.29
250.887	26881.55
251.117	26872.58
251.347	26856.91
251.576	26841.75
251.806	26831.93
252.036	26812.36
252.265	26787.98
252.495	26771.4
252.725	26754.18
252.954	26744.69
253.184	26719.85
253.413	26696.8
253.643	26666.55
253.873	26634.42
254.102	26607.11
254.332	26571.07
254.561	26538.51
254.791	26503.11
255.02	26478.35
255.25	26448.82
255.479	26408.96
255.708	26376.29
255.938	26344.76
256.167	26308.11
256.397	26269.33
256.626	26226.71
256.856	26185.96
257.085	26149.47
257.314	26103.84
257.544	26050
257.773	25997.71
258.002	25944.04
258.232	25893.24
258.461	25842.35
258.69	25791.95
258.919	25750.13
259.149	25709.98
259.378	25671.67
259.607	25626.42
259.836	25592.49
260.065	25554.84
260.295	25507.62
260.524	25471.98
260.753	25431.49
260.982	25386.4
261.211	25347.11
261.44	25295.55
261.669	25238.85
261.899	25183.69
262.128	25129.11
262.357	25079.55
262.586	25016.76
262.815	24972.16
263.044	24915.29
263.273	24868.36
263.502	24819.09
263.731	24760.53
263.96	24700
264.189	24644.91
264.418	24594.09
264.646	24543.95
264.875	24483.51
265.104	24433.65
265.333	24375.71
265.562	24329.24
265.791	24271.05
266.02	24218.09
266.249	24161
266.477	24115.2
266.706	24065.22
266.935	24017.93
267.164	23961.42
267.393	23921.6
267.621	23880.82
267.85	23840.13
268.079	23793
268.307	23755.02
268.536	23713.44
268.765	23680.35
268.993	23645.27
269.222	23612.38
269.451	23576.36
269.679	23553.11
269.908	23520.96
270.137	23492.05
270.365	23462.02
270.594	23434.56
270.822	23401.45
271.051	23365.56
271.279	23344.16
271.508	23324.31
271.736	23306.82
271.965	23282.45
272.193	23267.27
272.422	23249.02
272.65	23235.24
272.879	23221.29
273.107	23203.45
273.336	23189.4
273.564	23177.4
273.792	23163.93
274.021	23143.04
274.249	23122.87
274.477	23115.89
274.706	23105.15
274.934	23085.36
275.162	23071.71
275.391	23058.35
275.619	23054.89
275.847	23052.02
276.075	23058.55
276.304	23055.91
276.532	23055.2
276.76	23060.8
276.988	23054.22
277.216	23052.71
277.445	23059.45
277.673	23054.33
277.901	23055.36
278.129	23044.8
278.357	23047.71
278.585	23043.56
278.813	23039.18
279.041	23045.62
279.269	23052.47
279.497	23060.15
279.725	23060.76
279.954	23060.98
280.182	23078.85
280.41	23092.67
280.637	23111.16
280.865	23115.51
281.093	23121.18
281.321	23132.04
281.549	23136.33
281.777	23131.71
282.005	23132.71
282.233	23127.05
282.461	23130.05
282.689	23122.42
282.916	23117.15
283.144	23110.22
283.372	23111.04
283.6	23117.29
283.828	23117.49
284.055	23116.05
284.283	23115.27
284.511	23116.98
284.739	23122.53
284.966	23121.4
285.194	23117.51
285.422	23112.16
285.649	23111.95
285.877	23109.29
286.105	23105.67
286.332	23104.6
286.56	23107.45
286.788	23114.04
287.015	23115.93
287.243	23118.78
287.47	23123.29
287.698	23132.51
287.925	23144.67
288.153	23147.8
288.381	23157.13
288.608	23159.05
288.836	23161.42
289.063	23166.36
289.29	23165.91
289.518	23167.71
289.745	23169.6
289.973	23168.13
290.2	23167.09
290.428	23163.29
290.655	23165.49
290.882	23163.75
291.11	23157.09
291.337	23157.25
291.564	23158.16
291.792	23155.47
292.019	23152.56
292.246	23153.89
292.473	23151.96
292.701	23148.38
292.928	23141.55
293.155	23136.69
293.382	23122.96
293.61	23126.02
293.837	23117.05
294.064	23105.73
294.291	23094.24
294.518	23079.84
294.745	23062.71
294.972	23062.2
295.2	23042.89
295.427	23031.65
295.654	23026.4
295.881	23018
296.108	23000.49
296.335	22983.65
296.562	22965.31
296.789	22957.47
297.016	22950.11
297.243	22935.25
297.47	22915.67
297.697	22909.49
297.924	22897.2
298.151	22868.75
298.378	22848.29
298.604	22827.07
298.831	22806.29
299.058	22783.65
299.285	22756.91
299.512	22733.02
299.739	22709.56
299.966	22681.11
300.192	22645.73
300.419	22613.09
300.646	22580.76
300.873	22547.15
301.099	22515.02
301.326	22485.36
301.553	22457.47
301.78	22425.47
302.006	22385.15
302.233	22351.53
302.46	22313.31
302.686	22282.89
302.913	22240.05
303.14	22206.73
303.366	22170.51
303.593	22129.55
303.819	22094.02
304.046	22051.73
304.272	22012.8
304.499	21976.58
304.725	21942.09
304.952	21904.78
305.179	21871.64
305.405	21847.24
305.631	21808.42
305.858	21770.62
306.084	21730.24
306.311	21694.85
306.537	21659.6
306.764	21616.93
306.99	21584.93
307.216	21548.35
307.443	21513.95
307.669	21467.71
307.895	21427.53
308.122	21391.98
308.348	21356.67
308.574	21326.51
308.801	21282.31
309.027	21235.22
309.253	21204.47
309.479	21158.02
309.706	21109.27
309.932	21066.09
310.158	21026
310.384	20974.85
310.61	20933.78
310.837	20891.96
311.063	20844.62
311.289	20798.93
311.515	20763.09
311.741	20705.69
311.967	20665.62
312.193	20624.85
312.419	20576.04
312.645	20539.29
312.871	20497.75
313.097	20454.58
313.323	20413.4
313.549	20380.65
313.775	20341.29
314.001	20301.73
314.227	20269.42
314.453	20227.65
314.679	20183.2
314.905	20146.29
315.131	20099.62
315.357	20059.45
315.583	20022.07
315.809	19972.8
316.034	19925.65
316.26	19886.36
316.486	19839.4
316.712	19796.91
316.938	19753.42
317.163	19710.51
317.389	19668.62
317.615	19620.96
317.841	19576.75
318.066	19531.33
318.292	19494.51
318.518	19457
318.743	19416.96
318.969	19381.85
319.195	19345.69
319.42	19306.89
319.646	19272.56
319.872	19234.65
320.097	19196.91
320.323	19163.76
320.548	19126.44
320.774	19090.95
320.999	19050.62
321.225	19015.49
321.45	18979.78
321.676	18945.64
321.901	18909.22
322.127	18881.51
322.352	18857.07
322.578	18831.15
322.803	18797.82
323.029	18769.05
323.254	18735.78
323.479	18710.53
323.705	18677.84
323.93	18648.45
324.155	18618.96
324.381	18598.24
324.606	18565.56
324.831	18530.89
325.057	18496.53
325.282	18468.24
325.507	18435.25
325.732	18407.58
325.958	18371.58
326.183	18340.69
326.408	18305.58
326.633	18279.98
326.858	18242.64
327.084	18208.95
327.309	18171.56
327.534	18151.31
327.759	18125.69
327.984	18098.16
328.209	18071.47
328.434	18051.4
328.659	18030.27
328.884	18011.44
329.109	17978.4
329.334	17956.05
329.559	17935.27
329.784	17919.69
330.009	17893
330.234	17863.24
330.459	17830.82
330.684	17800
330.909	17765
331.134	17732.76
331.359	17700.04
331.584	17670.56
331.809	17638.75
332.034	17603.67
332.259	17565.64
332.483	17526.35
332.708	17499.62
332.933	17474.6
333.158	17448.84
333.383	17428.13
333.607	17405.09
333.832	17378.58
334.057	17355.24
334.282	17333.18
334.506	17310.33
334.731	17287.73
334.956	17268.33
335.18	17246.07
335.405	17229.8
335.63	17208.04
335.854	17175.56
336.079	17146.35
336.303	17120.13
336.528	17090.04
336.753	17054.15
336.977	17025.53
337.202	16992.45
337.426	16959.84
337.651	16924.67
337.875	16890.38
338.1	16860.4
338.324	16832.25
338.549	16799.95
338.773	16776.82
338.997	16749.65
339.222	16732.87
339.446	16708.22
339.671	16688.02
339.895	16670.24
340.119	16648.87
340.344	16621.58
340.568	16599.71
340.792	16577.84
341.017	16550.58
341.241	16523.67
341.465	16496.53
341.689	16463.8
341.914	16441.24
342.138	16413.02
342.362	16386.38
342.586	16362.27
342.811	16336.8
343.035	16297.62
343.259	16260.47
343.483	16231.24
343.707	16200.95
343.931	16175.55
344.155	16150.09
344.38	16120.58
344.604	16099.18
344.828	16073.75
345.052	16046.22
345.276	16026.56
345.5	16008.67
345.724	15996.93
345.948	15986.62
346.172	15965.62
346.396	15942.36
346.62	15927.78
346.844	15904.95
347.068	15874.51
347.292	15850.58
347.515	15818.71
347.739	15791.58
347.963	15760.62
348.187	15724.04
348.411	15690.96
348.635	15655.36
348.859	15621.29
349.082	15586.84
349.306	15555.33
349.53	15533.2
349.754	15499.58
349.977	15475.51
350.201	15447.18
350.425	15426.73
350.649	15406.22
350.872	15378.09
351.096	15356.13
351.32	15336
351.543	15305.33
351.767	15281.22
351.99	15252.27
352.214	15224.42
352.438	15200.33
352.661	15165.44
352.885	15131
353.108	15101.62
353.332	15069.89
353.555	15040.51
353.779	15015.16
354.002	14990.2
354.226	14963.36
354.449	14934.44
354.673	14908.04
354.896	14877.38
355.12	14859.35
355.343	14838.38
355.566	14812.67
355.79	14791.35
356.013	14773.07
356.237	14745.91
356.46	14716.35
356.683	14683.55
356.907	14653.8
357.13	14629.58
357.353	14603.69
357.576	14575.84
357.8	14549.84
358.023	14526.22
358.246	14502.91
358.469	14476.25
358.693	14448.38
358.916	14426.58
359.139	14406.24
359.362	14391.4
359.585	14366.24
359.808	14344.11
360.031	14324.87
360.255	14306.05
360.478	14281.51
360.701	14261.24
360.924	14239.91
361.147	14221.96
361.37	14208.55
361.593	14197.89
361.816	14178.27
362.039	14165.55
362.262	14158.18
362.485	14137.38
362.708	14109.89
362.931	14091.6
363.154	14067.96
363.377	14044.25
363.599	14024.75
363.822	14002.58
364.045	13982.02
364.268	13961.22
364.491	13944.49
364.714	13930.04
364.936	13920.36
365.159	13929.56
365.382	13936.42
365.605	13944.56
365.828	13958.69
366.05	13970.05
366.273	13977.85
366.496	13985.49
366.718	13990.38
366.941	13996.18
367.164	13999.35
367.386	13999.96
367.609	13993.67
367.832	13982.18
368.054	13964.87
368.277	13943.62
368.5	13923.58
368.722	13897.35
368.945	13861.8
369.167	13841.05
369.39	13807.35
369.612	13773.89
369.835	13742.56
370.057	13710.07
370.28	13687.87
370.502	13671.67
370.725	13654.85
370.947	13637.6
371.169	13629.53
371.392	13632.75
371.614	13617.42
371.837	13610.05
372.059	13603.91
372.281	13601.2
372.504	13600.89
372.726	13592.4
372.948	13591.67
373.171	13597.04
373.393	13600.13
373.615	13611.11
373.837	13619.25
374.06	13647.98
374.282	13680.33
374.504	13708.45
374.726	13731.07
374.948	13748.44
375.17	13770.29
375.393	13782.89
375.615	13803.8
375.837	13827.84
376.059	13847.27
376.281	13870.51
376.503	13891.56
376.725	13920.33
376.947	13949.11
377.169	13987.35
377.391	14029.93
377.613	14079.2
377.835	14148.82
378.057	14206.91
378.279	14258.98
378.501	14304.69
378.723	14338.44
378.945	14350.56
379.167	14360.78
379.389	14377.44
379.611	14387.95
379.833	14397.27
380.054	14398.91
380.276	14377.69
380.498	14351
380.72	14338.02
380.942	14333
381.163	14353.45
381.385	14396.04
381.607	14430.42
381.829	14449.05
382.05	14471.31
382.272	14491
382.494	14507.45
382.716	14532.62
382.937	14560.56
383.159	14583.76
383.381	14606.6
383.602	14608.98
383.824	14611.6
384.045	14613.45
384.267	14624.93
384.488	14636.71
384.71	14652.02
384.932	14676.85
385.153	14701.22
385.375	14736.02
385.596	14771.11
385.818	14821.42
386.039	14879.62
386.261	14939.89
386.482	15009.31
386.703	15076.91
386.925	15152.75
387.146	15231.71
387.368	15310.95
387.589	15386.82
387.81	15437.44
388.032	15472.04
388.253	15475.85
388.474	15466.8
388.696	15452.69
388.917	15435.13
389.138	15420.69
389.359	15399.71
389.581	15387.49
389.802	15374.02
390.023	15360.42
390.244	15368.53
390.465	15395.35
390.687	15460.24
390.908	15537.38
391.129	15636.67
391.35	15740.96
391.571	15864.31
391.792	15995.4
392.013	16108.04
392.234	16197.29
392.455	16275.18
392.677	16338.13
392.898	16390.24
393.119	16419.91
393.34	16455.84
393.561	16468.11
393.782	16473.09
394.003	16450.45
394.223	16413.75
394.444	16374.02
394.665	16354.2
394.886	16357.11
395.107	16371.42
395.328	16394.78
395.549	16425.27
395.77	16450.76
395.99	16486.51
396.211	16536.51
396.432	16609.69
396.653	16703.38
396.874	16821.33
397.094	16949.47
397.315	17077.78
397.536	17202.16
397.757	17319.53
397.977	17408.25
398.198	17473.47
398.419	17515.62
398.639	17533.85
398.86	17531.47
399.081	17501.6
399.301	17458.75
399.522	17397.27
399.742	17337
399.963	17286.89
400.184	17238.42
400.404	17194.47
400.625	17162.8
400.845	17149.35
401.066	17141.73
401.286	17134.18
401.507	17143.85
401.727	17159.65
401.948	17175.55
402.168	17182.71
402.388	17190.51
402.609	17203.24
402.829	17235.45
403.05	17279.67
403.27	17329.51
403.49	17384.4
403.711	17451.29
403.931	17529.29
404.151	17601.51
404.372	17687.76
404.592	17776.64
404.812	17840.87
405.032	17883.05
405.253	17899.51
405.473	17898.09
405.693	17879.44
405.913	17859.65
406.133	17819.85
406.353	17769.6
406.574	17712.36
406.794	17655.65
407.014	17607.45
407.234	17582.73
407.454	17590.44
407.674	17615.36
407.894	17652.47
408.114	17689.67
408.334	17730.42
408.554	17791.31
408.774	17855.29
408.994	17918.53
409.214	17966.44
409.434	17991.84
409.654	18004.55
409.874	18008.45
410.094	18013.02
410.314	18029.91
410.534	18050.31
410.754	18071.98
410.974	18099.35
411.193	18134.65
411.413	18192.24
411.633	18264.36
411.853	18345.42
412.073	18432.38
412.292	18518.4
412.512	18599.15
412.732	18661.71
412.952	18713
413.171	18753.29
413.391	18780.87
413.611	18793.24
413.831	18793.33
414.05	18781.29
414.27	18781.33
414.489	18777.95
414.709	18770.38
414.929	18765.67
415.148	18779.04
415.368	18801.05
415.587	18833.22
415.807	18854.44
416.026	18876.98
416.246	18904.27
416.465	18936.38
416.685	18958.16
416.904	18983.05
417.124	19006.6
417.343	19038.55
417.563	19074.04
417.782	19107.31
418.002	19145.44
418.221	19197.53
418.44	19253.85
418.66	19300.25
418.879	19357.8
419.098	19425.33
419.318	19508.24
419.537	19610.24
419.756	19724.98
419.976	19841.33
420.195	19994.69
420.414	20159.98
420.633	20334.11
420.853	20493.58
421.072	20654.58
421.291	20788.31
421.51	20898.75
421.729	20994.35
421.948	21091.33
422.168	21166.91
422.387	21225.25
422.606	21244.18
422.825	21227.2
423.044	21179.02
423.263	21137.2
423.482	21094.02
423.701	21077.67
423.92	21074.89
424.139	21068.15
424.358	21037.67
424.577	20996.45
424.796	20939.91
425.015	20885.65
425.234	20844.47
425.453	20828.51
425.672	20823.51
425.891	20845.45
426.11	20889.49
426.328	20954.29
426.547	21022.07
426.766	21080.33
426.985	21131.71
427.204	21178.33
427.422	21241.35
427.641	21317.64
427.86	21398.31
428.079	21487.56
428.297	21583.91
428.516	21682.49
428.735	21784.82
428.954	21903
429.172	22033.18
429.391	22181.6
429.61	22345.95
429.828	22474.09
430.047	22576.24
430.265	22639.76
430.484	22661.89
430.703	22619.24
430.921	22531.8
431.14	22419.27
431.358	22288.87
431.577	22168.25
431.795	22057.07
432.014	21974.24
432.232	21959.02
432.451	22015.8
432.669	22148.85
432.887	22306.98
433.106	22459.93
433.324	22571.22
433.543	22643.29
433.761	22715.36
433.979	22794.78
434.198	22876.25
434.416	22937.24
434.634	22944.62
