Data from yellow_MAYP1115451__0__10-40-11-589.txt Node

Date: Thu Jun 13 10:40:11 MDT 2024
User: Modes Lab
Spectrometer: MAYP111545
Trigger mode: 0
Integration Time (sec): 2.260000E-2
Scans to average: 5
Electric dark correction enabled: true
Nonlinearity correction enabled: false
Boxcar width: 5
XAxis mode: Wavelengths
Number of Pixels in Spectrum: 2068
>>>>>Begin Spectral Data<<<<<
165.214	182.17
165.449	202.68
165.683	239.86
165.918	272.49
166.152	298.93
166.387	320.99
166.621	278.52
166.856	341.99
167.09	387.82
167.325	437.39
167.559	476.75
167.794	512.62
168.028	531.32
168.263	535.12
168.497	536.01
168.732	537.32
168.966	537.62
169.2	538.73
169.435	541.33
169.669	542.33
169.903	544.01
170.138	546.68
170.372	545.61
170.606	548.13
170.841	549.75
171.075	551.01
171.309	550.48
171.544	552.3
171.778	552.81
172.012	554.08
172.246	555.1
172.48	556.37
172.715	558.22
172.949	562.88
173.183	563.52
173.417	564.44
173.651	566.22
173.885	569.12
174.119	569.72
174.354	571.7
174.588	572.66
174.822	572.68
175.056	574.3
175.29	573.52
175.524	571.73
175.758	572.82
175.992	572.44
176.226	572.82
176.46	572.52
176.694	572.28
176.928	572.42
177.162	572.04
177.396	573.84
177.63	573.57
177.864	575.64
178.097	577.37
178.331	578.22
178.565	580.88
178.799	581.82
179.033	583.12
179.267	585.15
179.5	586.84
179.734	589.5
179.968	591.61
180.202	593.72
180.436	594.24
180.669	595.3
180.903	596.73
181.137	598.97
181.371	600.93
181.604	602.53
181.838	605.39
182.072	607.33
182.305	610.17
182.539	610.72
182.772	612.22
183.006	614.82
183.24	615.88
183.473	622.01
183.707	623.95
183.94	626.28
184.174	630.59
184.408	634.32
184.641	638.84
184.875	642.17
185.108	648.55
185.342	655.3
185.575	662.44
185.808	671.61
186.042	677.41
186.275	686.44
186.509	696.22
186.742	706.82
186.976	716.66
187.209	728.19
187.442	742.28
187.676	755.64
187.909	773.48
188.142	791.55
188.376	809.7
188.609	828.64
188.842	849.95
189.076	872.04
189.309	896.01
189.542	924.57
189.775	955.04
190.009	985.37
190.242	1018.66
190.475	1048.5
190.708	1082.39
190.941	1115.15
191.174	1148.81
191.408	1184.59
191.641	1222.06
191.874	1260.97
192.107	1300.79
192.34	1341.81
192.573	1381.42
192.806	1421.42
193.039	1461.59
193.272	1500.19
193.505	1542.59
193.738	1586.17
193.971	1628.39
194.204	1673.3
194.437	1716.28
194.67	1757.55
194.903	1796.72
195.136	1839.04
195.369	1881.08
195.602	1925.17
195.835	1967.52
196.068	2011.35
196.301	2055.99
196.533	2099.17
196.766	2141.7
196.999	2184.1
197.232	2227.84
197.465	2274.26
197.698	2319.97
197.93	2367.84
198.163	2411.42
198.396	2459.59
198.629	2506.79
198.861	2554.52
199.094	2605.08
199.327	2656.42
199.559	2711.02
199.792	2763.32
200.025	2815.17
200.257	2871.17
200.49	2922.21
200.723	2983.24
200.955	3044.1
201.188	3105.7
201.42	3170.59
201.653	3236.37
201.886	3300.53
202.118	3364.93
202.351	3434.79
202.583	3502.3
202.816	3570.06
203.048	3647.06
203.281	3720.42
203.513	3794.79
203.745	3869.7
203.978	3942.64
204.21	4017.53
204.443	4096.13
204.675	4176.15
204.907	4254.5
205.14	4338.35
205.372	4423.62
205.605	4504.62
205.837	4590.61
206.069	4677.17
206.302	4768.19
206.534	4858.57
206.766	4950.52
206.998	5043.62
207.231	5139.9
207.463	5236.02
207.695	5339.19
207.927	5442.22
208.159	5547.28
208.392	5648.04
208.624	5753.42
208.856	5860.52
209.088	5972.88
209.32	6087.77
209.552	6206.42
209.784	6320.32
210.017	6435.95
210.249	6552.37
210.481	6672.35
210.713	6791.7
210.945	6919.68
211.177	7042.26
211.409	7169.64
211.641	7294.7
211.873	7425.84
212.105	7554.1
212.337	7690.15
212.569	7832.12
212.801	7967.48
213.033	8107.12
213.264	8251.92
213.496	8401.79
213.728	8555.53
213.96	8707.01
214.192	8865.82
214.424	9021.7
214.656	9184.97
214.887	9347.5
215.119	9509.86
215.351	9676.66
215.583	9842.02
215.815	10008.33
216.046	10170.28
216.278	10335.13
216.51	10499.19
216.741	10664.41
216.973	10828.3
217.205	10989.72
217.436	11155.75
217.668	11324.61
217.9	11494.28
218.131	11660.59
218.363	11825.46
218.595	12002.42
218.826	12181.62
219.058	12363.39
219.289	12532.52
219.521	12711.95
219.752	12886.93
219.984	13065.41
220.215	13245.22
220.447	13421.64
220.678	13600.61
220.91	13782.86
221.141	13952.9
221.373	14123.68
221.604	14292.55
221.836	14478.75
222.067	14657.52
222.298	14837.93
222.53	15012.68
222.761	15189.75
222.993	15373.82
223.224	15555.01
223.455	15741.9
223.686	15933.77
223.918	16122.35
224.149	16318.46
224.38	16501.26
224.612	16680.32
224.843	16873.5
225.074	17060.57
225.305	17237.55
225.536	17412.68
225.768	17595.77
225.999	17770.53
226.23	17939.46
226.461	18106.79
226.692	18267.88
226.923	18436.39
227.155	18605.93
227.386	18767.44
227.617	18937.37
227.848	19112.1
228.079	19286.46
228.31	19457.3
228.541	19628.3
228.772	19794.57
229.003	19965.86
229.234	20139.95
229.465	20301.21
229.696	20468.41
229.927	20637.32
230.158	20796.37
230.389	20952.26
230.62	21112.52
230.85	21273.86
231.081	21427.84
231.312	21581.93
231.543	21728.61
231.774	21872.75
232.005	22020.79
232.236	22173.68
232.466	22320.08
232.697	22469.59
232.928	22601.79
233.159	22730.13
233.389	22846.01
233.62	22966.35
233.851	23082.32
234.082	23200.9
234.312	23310.86
234.543	23411.21
234.774	23497.77
235.004	23570.35
235.235	23630.22
235.466	23709.66
235.696	23770.44
235.927	23836.06
236.157	23888.77
236.388	23944.7
236.618	23993.15
236.849	24041.21
237.08	24096.46
237.31	24136.37
237.541	24176.97
237.771	24220.59
238.002	24256.77
238.232	24296.1
238.463	24326.93
238.693	24364.48
238.923	24385.06
239.154	24404.5
239.384	24417.28
239.615	24417.75
239.845	24430.88
240.075	24445.72
240.306	24453.24
240.536	24448.5
240.766	24446.93
240.997	24447.52
241.227	24438.55
241.457	24437.35
241.687	24436.52
241.918	24428.99
242.148	24427.66
242.378	24415.42
242.608	24402.62
242.839	24393.88
243.069	24386.33
243.299	24372.66
243.529	24360.33
243.759	24340.12
243.989	24321.62
244.22	24302.52
244.45	24285.22
244.68	24271.86
244.91	24257.44
245.14	24231.99
245.37	24204.12
245.6	24183.7
245.83	24160.42
246.06	24130.46
246.29	24117.7
246.52	24100.75
246.75	24072.28
246.98	24058.22
247.21	24029.08
247.44	23999.84
247.67	23982.01
247.9	23959.3
248.13	23936.24
248.359	23911.37
248.589	23893.39
248.819	23866.79
249.049	23841.32
249.279	23821.52
249.509	23784.53
249.738	23751.26
249.968	23727.33
250.198	23689.88
250.428	23670.21
250.657	23636.12
250.887	23610.61
251.117	23580.97
251.347	23557.62
251.576	23530.19
251.806	23502.37
252.036	23481.02
252.265	23458.61
252.495	23435.12
252.725	23418.62
252.954	23383.52
253.184	23360.9
253.413	23330.48
253.643	23296.01
253.873	23253.88
254.102	23219.93
254.332	23183.7
254.561	23144.5
254.791	23107.81
255.02	23062.52
255.25	23017.37
255.479	22979.95
255.708	22941.9
255.938	22904.19
256.167	22870.06
256.397	22826.73
256.626	22772.61
256.856	22726.33
257.085	22685.75
257.314	22643.06
257.544	22605.1
257.773	22559.64
258.002	22517.04
258.232	22473.17
258.461	22435.62
258.69	22393.28
258.919	22367.68
259.149	22350.86
259.378	22326.93
259.607	22296.61
259.836	22276.3
260.065	22252.5
260.295	22234.53
260.524	22211.39
260.753	22190.82
260.982	22161.68
261.211	22144.46
261.44	22122.42
261.669	22093.53
261.899	22062.53
262.128	22033.48
262.357	22004.93
262.586	21967.82
262.815	21938.5
263.044	21911.46
263.273	21885.55
263.502	21861.32
263.731	21822.81
263.96	21784.92
264.189	21752.57
264.418	21723.02
264.646	21692.04
264.875	21653.28
265.104	21626.55
265.333	21596.97
265.562	21561.93
265.791	21519.35
266.02	21480.37
266.249	21457.75
266.477	21425.39
266.706	21391.22
266.935	21359.82
267.164	21333.79
267.393	21315.3
267.621	21290.48
267.85	21269.37
268.079	21254.82
268.307	21241.61
268.536	21236.7
268.765	21217.97
268.993	21214.3
269.222	21205.22
269.451	21194.55
269.679	21185.77
269.908	21175.12
270.137	21172.12
270.365	21170.55
270.594	21170.1
270.822	21173.53
271.051	21168.59
271.279	21170.81
271.508	21173.21
271.736	21179.48
271.965	21185.5
272.193	21186.24
272.422	21197.66
272.65	21208.21
272.879	21215.5
273.107	21223.08
273.336	21225.97
273.564	21235.86
273.792	21244.08
274.021	21242.61
274.249	21252.82
274.477	21269.28
274.706	21286.7
274.934	21300.9
275.162	21320.04
275.391	21331.3
275.619	21348.52
275.847	21373.13
276.075	21388.99
276.304	21410.32
276.532	21439.28
276.76	21460.01
276.988	21480.53
277.216	21509.44
277.445	21524.73
277.673	21545.53
277.901	21572.97
278.129	21595.77
278.357	21619.88
278.585	21640.37
278.813	21667.24
279.041	21691.53
279.269	21719.02
279.497	21743.04
279.725	21771.93
279.954	21814.46
280.182	21841.46
280.41	21872.32
280.637	21899.21
280.865	21924.52
281.093	21961.64
281.321	21992.28
281.549	22022.95
281.777	22056.21
282.005	22093.79
282.233	22122.06
282.461	22141.68
282.689	22170.21
282.916	22196.1
283.144	22230.84
283.372	22267.17
283.6	22299.81
283.828	22328.13
284.055	22355.79
284.283	22384.33
284.511	22407.46
284.739	22429.72
284.966	22462.82
285.194	22484.72
285.422	22515.61
285.649	22536.08
285.877	22555.06
286.105	22577.64
286.332	22598.42
286.56	22628.02
286.788	22655.41
287.015	22683.55
287.243	22709.5
287.47	22729.86
287.698	22767.08
287.925	22798.59
288.153	22829.92
288.381	22865.08
288.608	22894.97
288.836	22925.77
289.063	22963.52
289.29	22989.19
289.518	23013.75
289.745	23040.19
289.973	23071.52
290.2	23093.52
290.428	23104.95
290.655	23132.32
290.882	23150.32
291.11	23170.82
291.337	23185.75
291.564	23197.12
291.792	23218.88
292.019	23246.15
292.246	23265.66
292.473	23275.19
292.701	23284.79
292.928	23307.19
293.155	23317.79
293.382	23332.97
293.61	23344.61
293.837	23356.82
294.064	23357.95
294.291	23358.17
294.518	23351.68
294.745	23361.81
294.972	23379.02
295.2	23384.3
295.427	23383.72
295.654	23382.12
295.881	23386.28
296.108	23381.46
296.335	23388.52
296.562	23398.99
296.789	23406.72
297.016	23412.17
297.243	23407.19
297.47	23394.01
297.697	23391.81
297.924	23382.52
298.151	23380.3
298.378	23365.48
298.604	23354.84
298.831	23333.17
299.058	23316.39
299.285	23299.41
299.512	23276.55
299.739	23255.42
299.966	23239.57
300.192	23219.88
300.419	23210.99
300.646	23191.77
300.873	23172.28
301.099	23157.44
301.326	23140.86
301.553	23119.22
301.78	23094.57
302.006	23071.41
302.233	23050.1
302.46	23024.22
302.686	22991.22
302.913	22958.13
303.14	22922.13
303.366	22885.57
303.593	22852.39
303.819	22818.68
304.046	22780.86
304.272	22742.37
304.499	22713.84
304.725	22675.02
304.952	22638.42
305.179	22602.95
305.405	22573.1
305.631	22543.62
305.858	22511.64
306.084	22475.52
306.311	22436.52
306.537	22398.55
306.764	22365.99
306.99	22334.26
307.216	22304.26
307.443	22264.81
307.669	22232.97
307.895	22192.19
308.122	22148.61
308.348	22114.06
308.574	22071.9
308.801	22041.17
309.027	21998.97
309.253	21958.04
309.479	21909.39
309.706	21865.04
309.932	21824.84
310.158	21776.62
310.384	21731.48
310.61	21684.81
310.837	21634.95
311.063	21599.62
311.289	21545.46
311.515	21504.06
311.741	21456.79
311.967	21413.64
312.193	21367.53
312.419	21313.17
312.645	21268.99
312.871	21214.61
313.097	21166.61
313.323	21121.35
313.549	21066.26
313.775	21026.12
314.001	20974.9
314.227	20922.75
314.453	20872.9
314.679	20822.12
314.905	20777.97
315.131	20729.19
315.357	20682.82
315.583	20636.08
315.809	20577.77
316.034	20523.57
316.26	20469.84
316.486	20427.86
316.712	20383.46
316.938	20330.79
317.163	20285.44
317.389	20230.1
317.615	20176.77
317.841	20125.22
318.066	20077.48
318.292	20027.93
318.518	19981.66
318.743	19932.19
318.969	19875.28
319.195	19819.97
319.42	19769.53
319.646	19722.64
319.872	19679.39
320.097	19643.59
320.323	19595.55
320.548	19551.44
320.774	19510.22
320.999	19463.84
321.225	19417.33
321.45	19375.04
321.676	19334.81
321.901	19291.61
322.127	19244.64
322.352	19205.04
322.578	19156.19
322.803	19118.93
323.029	19068.61
323.254	19030.64
323.479	18990.19
323.705	18959.57
323.93	18915.61
324.155	18877.68
324.381	18841.32
324.606	18798.86
324.831	18761.15
325.057	18718.92
325.282	18678.19
325.507	18635.04
325.732	18598.99
325.958	18562.92
326.183	18508.93
326.408	18472.22
326.633	18423.73
326.858	18382.77
327.084	18348.48
327.309	18307.1
327.534	18270.64
327.759	18226.95
327.984	18197.46
328.209	18158.77
328.434	18119.77
328.659	18087.72
328.884	18051.04
329.109	18023.15
329.334	17995.33
329.559	17956.55
329.784	17916.13
330.009	17879.59
330.234	17845.46
330.459	17806.99
330.684	17764.88
330.909	17727.62
331.134	17686.57
331.359	17651.52
331.584	17617.02
331.809	17578.26
332.034	17537.19
332.259	17503.9
332.483	17471.01
332.708	17434.17
332.933	17399.15
333.158	17370.22
333.383	17333.9
333.607	17303.82
333.832	17271.9
334.057	17236.17
334.282	17202.19
334.506	17178.48
334.731	17147.02
334.956	17115.57
335.18	17087.64
335.405	17060.28
335.63	17024.88
335.854	16993.17
336.079	16969.88
336.303	16936.21
336.528	16903.37
336.753	16872.86
336.977	16840.62
337.202	16812.66
337.426	16779.62
337.651	16749.46
337.875	16717.32
338.1	16685.77
338.324	16654.81
338.549	16620.79
338.773	16596.15
338.997	16564.19
339.222	16532.02
339.446	16500.28
339.671	16471.26
339.895	16445.01
340.119	16413.55
340.344	16387.62
340.568	16356.46
340.792	16329.46
341.017	16302.39
341.241	16268.5
341.465	16239.55
341.689	16211.06
341.914	16170.79
342.138	16137.02
342.362	16097.92
342.586	16066.04
342.811	16024.82
343.035	15994.17
343.259	15959.77
343.483	15925.06
343.707	15889.28
343.931	15859.9
344.155	15827.5
344.38	15801.44
344.604	15772.42
344.828	15750.97
345.052	15727.28
345.276	15702.44
345.5	15673.86
345.724	15654.42
345.948	15627.9
346.172	15604.84
346.396	15577.35
346.62	15554.3
346.844	15534.46
347.068	15501.44
347.292	15469.01
347.515	15440.39
347.739	15411.08
347.963	15382.57
348.187	15349.5
348.411	15314.3
348.635	15278.22
348.859	15245.39
349.082	15205.15
349.306	15168.17
349.53	15137.37
349.754	15104.68
349.977	15068.55
350.201	15035.32
350.425	15000.55
350.649	14965.75
350.872	14940.53
351.096	14913.77
351.32	14887.46
351.543	14861.99
351.767	14830.53
351.99	14794.46
352.214	14761.24
352.438	14727.61
352.661	14691.92
352.885	14664.82
353.108	14636.04
353.332	14604.22
353.555	14572.53
353.779	14536.21
354.002	14498.57
354.226	14464.92
354.449	14437.22
354.673	14409.06
354.896	14385.21
355.12	14356.79
355.343	14331.17
355.566	14301.68
355.79	14269.06
356.013	14239.41
356.237	14208.39
356.46	14187.21
356.683	14161.75
356.907	14138.21
357.13	14109.68
357.353	14078.35
357.576	14054.59
357.8	14018.82
358.023	13985.48
358.246	13953.52
358.469	13919.24
358.693	13894.73
358.916	13862.7
359.139	13830.53
359.362	13801.24
359.585	13773.59
359.808	13744.42
360.031	13716.95
360.255	13691.93
360.478	13670.53
360.701	13650.64
360.924	13631.68
361.147	13608.13
361.37	13582.26
361.593	13562.28
361.816	13543.28
362.039	13516.13
362.262	13491.84
362.485	13468.5
362.708	13442.32
362.931	13415.02
363.154	13382.7
363.377	13357.04
363.599	13331.28
363.822	13311.57
364.045	13288.92
364.268	13265.28
364.491	13249.19
364.714	13236.7
364.936	13225.37
365.159	13221.92
365.382	13220.17
365.605	13221.13
365.828	13230.41
366.05	13229.08
366.273	13228.73
366.496	13229.5
366.718	13227.73
366.941	13220.66
367.164	13208.53
367.386	13201.72
367.609	13189.79
367.832	13176.53
368.054	13163.3
368.277	13132.57
368.5	13104.92
368.722	13074.59
368.945	13036.57
369.167	13004.73
369.39	12977.57
369.612	12949.52
369.835	12915.19
370.057	12889.86
370.28	12859.15
370.502	12833.39
370.725	12810.9
370.947	12798.95
371.169	12786.37
371.392	12781.64
371.614	12764.22
371.837	12747.57
372.059	12739.84
372.281	12730.61
372.504	12711.92
372.726	12701.01
372.948	12688.61
373.171	12685.79
373.393	12683.57
373.615	12688.81
373.837	12700.15
374.06	12718.01
374.282	12746.48
374.504	12767.3
374.726	12783.97
374.948	12797.52
375.17	12813.61
375.393	12830.7
375.615	12842.55
375.837	12856.52
376.059	12863.28
376.281	12875.53
376.503	12894.62
376.725	12911.19
376.947	12930.93
377.169	12964.02
377.391	13002.97
377.613	13046.57
377.835	13093.5
378.057	13146.79
378.279	13194.7
378.501	13239.44
378.723	13261.28
378.945	13272.08
379.167	13276.66
379.389	13286.59
379.611	13289.06
379.833	13291.41
380.054	13281.17
380.276	13262.35
380.498	13238.66
380.72	13224.12
380.942	13214.73
381.163	13227.22
381.385	13257.46
381.607	13293.1
381.829	13314.93
382.05	13331.32
382.272	13344.26
382.494	13358.24
382.716	13378.19
382.937	13403.82
383.159	13420.86
383.381	13435.39
383.602	13444.22
383.824	13438.86
384.045	13429.04
384.267	13432.75
384.488	13438.77
384.71	13451.21
384.932	13473.1
385.153	13493.08
385.375	13510.9
385.596	13543.77
385.818	13579.19
386.039	13614.92
386.261	13666.22
386.482	13721.64
386.703	13780.82
386.925	13844.81
387.146	13912.52
387.368	13976.55
387.589	14039.7
387.81	14085.82
388.032	14102.55
388.253	14103.95
388.474	14094.55
388.696	14079.21
388.917	14064.02
389.138	14042.28
389.359	14027.37
389.581	14009.86
389.802	13995.84
390.023	13981.59
390.244	13981.17
390.465	14008.1
390.687	14059.82
390.908	14133.12
391.129	14218.99
391.35	14306.73
391.571	14415.48
391.792	14524.72
392.013	14626.41
392.234	14704.86
392.455	14769.66
392.677	14821.84
392.898	14859.3
393.119	14891.08
393.34	14916.52
393.561	14924.12
393.782	14925.82
394.003	14895.92
394.223	14853.01
394.444	14809.02
394.665	14784.04
394.886	14778.37
395.107	14789.97
395.328	14807.01
395.549	14832.92
395.77	14852.97
395.99	14884.24
396.211	14928.13
396.432	14990.26
396.653	15070.75
396.874	15168.92
397.094	15273.15
397.315	15380.48
397.536	15487.22
397.757	15582.44
397.977	15649.13
398.198	15696.92
398.419	15728.21
398.639	15743.06
398.86	15732.22
399.081	15702.64
399.301	15661.72
399.522	15613.04
399.742	15565.53
399.963	15517.08
400.184	15473.75
400.404	15434.72
400.625	15415.79
400.845	15395.06
401.066	15387.21
401.286	15391.72
401.507	15403.1
401.727	15411.81
401.948	15420.93
402.168	15423.08
402.388	15428.3
402.609	15439.82
402.829	15466.92
403.05	15500.55
403.27	15544.84
403.49	15586.01
403.711	15642.37
403.931	15707.68
404.151	15779.13
404.372	15854.62
404.592	15932.75
404.812	15991.22
405.032	16028.72
405.253	16041.55
405.473	16046.5
405.693	16033.88
405.913	16011.19
406.133	15971.1
406.353	15925.26
406.574	15868.22
406.794	15808.5
407.014	15755.7
407.234	15724.55
407.454	15728.17
407.674	15751.95
407.894	15769.59
408.114	15806.26
408.334	15845.7
408.554	15890.37
408.774	15932.17
408.994	15988.35
409.214	16032.35
409.434	16052.86
409.654	16066.26
409.874	16057.92
410.094	16059.32
410.314	16069.62
410.534	16068.72
410.754	16083.68
410.974	16104.19
411.193	16140.33
411.413	16180.39
411.633	16242.19
411.853	16315.9
412.073	16389.04
412.292	16466.77
412.512	16526.66
412.732	16576.46
412.952	16626.19
413.171	16650.81
413.391	16669.97
413.611	16676.21
413.831	16675.44
414.05	16665.55
414.27	16655.44
414.489	16641.61
414.709	16623.28
414.929	16618.17
415.148	16621.86
415.368	16630.73
415.587	16648.06
415.807	16662.62
416.026	16680.17
416.246	16691.13
416.465	16698.21
416.685	16711.86
416.904	16728.82
417.124	16748.13
417.343	16763.01
417.563	16780.41
417.782	16803.5
418.002	16836.66
418.221	16874.75
418.44	16909.5
418.66	16953.17
418.879	17001.53
419.098	17056.04
419.318	17120.46
419.537	17198.57
419.756	17292.48
419.976	17401.73
420.195	17523.3
420.414	17656.9
420.633	17796.21
420.853	17937.48
421.072	18057.75
421.291	18161.48
421.51	18246.06
421.729	18324.42
421.948	18394.46
422.168	18449.93
422.387	18488.55
422.606	18498.62
422.825	18474.17
423.044	18436.93
423.263	18382.92
423.482	18345.21
423.701	18326.39
423.92	18321.39
424.139	18303.22
424.358	18278.42
424.577	18242.32
424.796	18190.32
425.015	18139.59
425.234	18106.81
425.453	18083.9
425.672	18085.86
425.891	18099.28
426.11	18136.72
426.328	18188.3
426.547	18255.26
426.766	18311.04
426.985	18356.44
427.204	18396.37
427.422	18446.62
427.641	18506.48
427.86	18573.52
428.079	18643.17
428.297	18731.72
428.516	18821.37
428.735	18905.26
428.954	18993.5
429.172	19099.35
429.391	19218.64
429.61	19344.59
429.828	19460.46
430.047	19550.21
430.265	19605.44
430.484	19613.88
430.703	19575.75
430.921	19502.39
431.14	19403.5
431.358	19293.75
431.577	19190.55
431.795	19101.99
432.014	19040.1
432.232	19023.1
432.451	19070.88
432.669	19181.1
432.887	19325.72
433.106	19452.88
433.324	19542.77
433.543	19602.66
433.761	19669.3
433.979	19734.06
