Data from measurement_MAYP1115451__0__11-21-01-431.txt Node

Date: Tue Jun 25 11:21:01 MDT 2024
User: Modes Lab
Spectrometer: MAYP111545
Trigger mode: 0
Integration Time (sec): 8.000000E-3
Scans to average: 1
Electric dark correction enabled: true
Nonlinearity correction enabled: false
Boxcar width: 5
XAxis mode: Wavelengths
Number of Pixels in Spectrum: 2068
>>>>>Begin Spectral Data<<<<<
165.214	286
165.449	372.55
165.683	479.96
165.918	575.83
166.152	652.73
166.387	718.02
166.621	746.38
166.856	888.83
167.09	1011.29
167.325	1138.02
167.559	1233.11
167.794	1317.56
168.028	1367.83
168.263	1390.74
168.497	1399.56
168.732	1413.65
168.966	1426.65
169.2	1450.92
169.435	1465.74
169.669	1482.56
169.903	1498.83
170.138	1517.83
170.372	1539.65
170.606	1559.02
170.841	1580.65
171.075	1604.83
171.309	1629.38
171.544	1654.2
171.778	1675.83
172.012	1701.83
172.246	1727.47
172.48	1757.02
172.715	1781.83
172.949	1805.11
173.183	1828.02
173.417	1848.92
173.651	1869.92
173.885	1884.74
174.119	1896.38
174.354	1904.29
174.588	1909.2
174.822	1909.47
175.056	1914.2
175.29	1920.56
175.524	1921.65
175.758	1927.83
175.992	1927.02
176.226	1931.02
176.46	1935.47
176.694	1950.02
176.928	1960.74
177.162	1982.02
177.396	2002.29
177.63	2018.92
177.864	2036.65
178.097	2055.92
178.331	2076.56
178.565	2092.56
178.799	2112.2
179.033	2135.02
179.267	2150.11
179.5	2173.38
179.734	2184.56
179.968	2204.47
180.202	2223.83
180.436	2250.92
180.669	2279.38
180.903	2309.74
181.137	2349.56
181.371	2392.47
181.604	2439.47
181.838	2493.38
182.072	2558.92
182.305	2630.92
182.539	2715.2
182.772	2808.56
183.006	2909.92
183.24	3013.11
183.473	3140.02
183.707	3286.38
183.94	3455.02
184.174	3636.02
184.408	3840.02
184.641	4046.02
184.875	4264.56
185.108	4499.11
185.342	4753.65
185.575	5033.56
185.808	5366.11
186.042	5704.65
186.275	6054.38
186.509	6377.83
186.742	6702.56
186.976	7027.56
187.209	7366.38
187.442	7753.47
187.676	8166.02
187.909	8582.83
188.142	8992.2
188.376	9374.38
188.609	9726.11
188.842	10068.38
189.076	10429.56
189.309	10841.2
189.542	11280.56
189.775	11762.29
190.009	12212.11
190.242	12639.83
190.475	13052.02
190.708	13441.83
190.941	13819.29
191.174	14226.02
191.408	14672.2
191.641	15149.29
191.874	15625.92
192.107	16096.02
192.34	16531.56
192.573	16973.11
192.806	17399.83
193.039	17849.56
193.272	18309.92
193.505	18797.83
193.738	19300.74
193.971	19769.74
194.204	20251.83
194.437	20700.38
194.67	21151.92
194.903	21586.74
195.136	22020.11
195.369	22482.56
195.602	22930.83
195.835	23407.47
196.068	23890.2
196.301	24367.29
196.533	24862.47
196.766	25307.74
196.999	25767.92
197.232	26232.2
197.465	26732.02
197.698	27220.74
197.93	27710.56
198.163	28203.02
198.396	28681.02
198.629	29155.02
198.861	29660.92
199.094	30142.02
199.327	30630.29
199.559	31126.38
199.792	31629.47
200.025	32150.56
200.257	32688.83
200.49	33234.74
200.723	33766.56
200.955	34311.65
201.188	34859.56
201.42	35384.29
201.653	35934.74
201.886	36541.02
202.118	37140.65
202.351	37705.92
202.583	38262.11
202.816	38810.38
203.048	39359.74
203.281	39944.56
203.513	40541.02
203.745	41162.92
203.978	41754.2
204.21	42370.47
204.443	42948.29
204.675	43542.29
204.907	44139.74
205.14	44724.65
205.372	45345.65
205.605	45964.56
205.837	46620.38
206.069	47239.83
206.302	47849.11
206.534	48489.83
206.766	49122.83
206.998	49757.74
207.231	50393.65
207.463	51059.29
207.695	51722.38
207.927	52384.83
208.159	53025.92
208.392	53645.83
208.624	54286.47
208.856	54932.74
209.088	55585.65
209.32	56228.29
209.552	56887.83
209.784	57531.47
210.017	58143.83
210.249	58704.02
210.481	59193.11
210.713	59645.38
210.945	60028.92
211.177	60366.11
211.409	60634.02
211.641	60839.47
211.873	60990.56
212.105	61079.11
212.337	61112.83
212.569	61112.83
212.801	61112.83
213.033	61112.83
213.264	61112.83
213.496	61112.83
213.728	61112.83
213.96	61112.83
214.192	61112.83
214.424	61112.83
214.656	61112.83
214.887	61112.83
215.119	61112.83
215.351	61112.83
215.583	61112.83
215.815	61112.83
216.046	61112.83
216.278	61112.83
216.51	61112.83
216.741	61112.83
216.973	61112.83
217.205	61112.83
217.436	61112.83
217.668	61112.83
217.9	61112.83
218.131	61112.83
218.363	61112.83
218.595	61112.83
218.826	61112.83
219.058	61112.83
219.289	61112.83
219.521	61112.83
219.752	61112.83
219.984	61112.83
220.215	61112.83
220.447	61112.83
220.678	61112.83
220.91	61112.83
221.141	61112.83
221.373	61112.83
221.604	61112.83
221.836	61112.83
222.067	61112.83
222.298	61112.83
222.53	61112.83
222.761	61112.83
222.993	61112.83
223.224	61112.83
223.455	61112.83
223.686	61112.83
223.918	61112.83
224.149	61112.83
224.38	61112.83
224.612	61112.83
224.843	61112.83
225.074	61112.83
225.305	61112.83
225.536	61112.83
225.768	61112.83
225.999	61112.83
226.23	61112.83
226.461	61112.83
226.692	61112.83
226.923	61112.83
227.155	61112.83
227.386	61112.83
227.617	61112.83
227.848	61112.83
228.079	61112.83
228.31	61112.83
228.541	61112.83
228.772	61112.83
229.003	61112.83
229.234	61112.83
229.465	61112.83
229.696	61112.83
229.927	61112.83
230.158	61112.83
230.389	61112.83
230.62	61112.83
230.85	61112.83
231.081	61112.83
231.312	61112.83
231.543	61112.83
231.774	61112.83
232.005	61112.83
232.236	61112.83
232.466	61112.83
232.697	61112.83
232.928	61112.83
233.159	61112.83
233.389	61112.83
233.62	61112.83
233.851	61112.83
234.082	61112.83
234.312	61112.83
234.543	61112.83
234.774	61112.83
235.004	61112.83
235.235	61112.83
235.466	61112.83
235.696	61112.83
235.927	61112.83
236.157	61112.83
236.388	61112.83
236.618	61112.83
236.849	61112.83
237.08	61112.83
237.31	61112.83
237.541	61112.83
237.771	61112.83
238.002	61112.83
238.232	61112.83
238.463	61112.83
238.693	61112.83
238.923	61112.83
239.154	61112.83
239.384	61112.83
239.615	61112.83
239.845	61112.83
240.075	61112.83
240.306	61112.83
240.536	61112.83
240.766	61112.83
240.997	61112.83
241.227	61112.83
241.457	61112.83
241.687	61112.83
241.918	61112.83
242.148	61112.83
242.378	61112.83
242.608	61112.83
242.839	61112.83
243.069	61112.83
243.299	61112.83
243.529	61112.83
243.759	61112.83
243.989	61112.83
244.22	61112.83
244.45	61112.83
244.68	61112.83
244.91	61112.83
245.14	61112.83
245.37	61112.83
245.6	61112.83
245.83	61112.83
246.06	61112.83
246.29	61112.83
246.52	61112.83
246.75	61112.83
246.98	61112.83
247.21	61112.83
247.44	61112.83
247.67	61112.83
247.9	61112.83
248.13	61112.83
248.359	61112.83
248.589	61112.83
248.819	61112.83
249.049	61112.83
249.279	61112.83
249.509	61112.83
249.738	61112.83
249.968	61112.83
250.198	61112.83
250.428	61112.83
250.657	61112.83
250.887	61112.83
251.117	61112.83
251.347	61112.83
251.576	61112.83
251.806	61112.83
252.036	61112.83
252.265	61112.83
252.495	61112.83
252.725	61112.83
252.954	61112.83
253.184	61112.83
253.413	61112.83
253.643	61112.83
253.873	61112.83
254.102	61112.83
254.332	61112.83
254.561	61112.83
254.791	61112.83
255.02	61112.83
255.25	61112.83
255.479	61112.83
255.708	61112.83
255.938	61112.83
256.167	61112.83
256.397	61112.83
256.626	61112.83
256.856	61112.83
257.085	61112.83
257.314	61112.83
257.544	61112.83
257.773	61112.83
258.002	61112.83
258.232	61112.83
258.461	61112.83
258.69	61112.83
258.919	61112.83
259.149	61112.83
259.378	61112.83
259.607	61112.83
259.836	61112.83
260.065	61112.83
260.295	61112.83
260.524	61112.83
260.753	61112.83
260.982	61112.83
261.211	61112.83
261.44	61112.83
261.669	61112.83
261.899	61112.83
262.128	61112.83
262.357	61112.83
262.586	61112.83
262.815	61112.83
263.044	61112.83
263.273	61112.83
263.502	61112.83
263.731	61112.83
263.96	61112.83
264.189	61112.83
264.418	61112.83
264.646	61112.83
264.875	61112.83
265.104	61112.83
265.333	61112.83
265.562	61112.83
265.791	61112.83
266.02	61112.83
266.249	61112.83
266.477	61112.83
266.706	61112.83
266.935	61112.83
267.164	61112.83
267.393	61112.83
267.621	61112.83
267.85	61112.83
268.079	61112.83
268.307	61112.83
268.536	61112.83
268.765	61112.83
268.993	61112.83
269.222	61112.83
269.451	61112.83
269.679	61112.83
269.908	61112.83
270.137	61112.83
270.365	61112.83
270.594	61112.83
270.822	61112.83
271.051	61112.83
271.279	61112.83
271.508	61112.83
271.736	61112.83
271.965	61112.83
272.193	61112.83
272.422	61112.83
272.65	61112.83
272.879	61112.83
273.107	61112.83
273.336	61112.83
273.564	61112.83
273.792	61112.83
274.021	61112.83
274.249	61112.83
274.477	61112.83
274.706	61112.83
274.934	61112.83
275.162	61112.83
275.391	61112.83
275.619	61112.83
275.847	61112.83
276.075	61112.83
276.304	61112.83
276.532	61112.83
276.76	61112.83
276.988	61112.83
277.216	61112.83
277.445	61112.83
277.673	61112.83
277.901	61112.83
278.129	61112.83
278.357	61112.83
278.585	61112.83
278.813	61112.83
279.041	61112.83
279.269	61112.83
279.497	61112.83
279.725	61112.83
279.954	61112.83
280.182	61112.83
280.41	61112.83
280.637	61112.83
280.865	61112.83
281.093	61112.83
281.321	61112.83
281.549	61112.83
281.777	61112.83
282.005	61112.83
282.233	61112.83
282.461	61112.83
282.689	61112.83
282.916	61112.83
283.144	61112.83
283.372	61112.83
283.6	61112.83
283.828	61112.83
284.055	61112.83
284.283	61112.83
284.511	61112.83
284.739	61112.83
284.966	61112.83
285.194	61112.83
285.422	61112.83
285.649	61112.83
285.877	61112.83
286.105	61112.83
286.332	61112.83
286.56	61112.83
286.788	61112.83
287.015	61112.83
287.243	61112.83
287.47	61112.83
287.698	61112.83
287.925	61112.83
288.153	61112.83
288.381	61112.83
288.608	61112.83
288.836	61112.83
289.063	61112.83
289.29	61112.83
289.518	61112.83
289.745	61112.83
289.973	61112.83
290.2	61112.83
290.428	61112.83
290.655	61112.83
290.882	61112.83
291.11	61112.83
291.337	61112.83
291.564	61112.83
291.792	61112.83
292.019	61112.83
292.246	61112.83
292.473	61112.83
292.701	61112.83
292.928	61112.83
293.155	61112.83
293.382	61112.83
293.61	61112.83
293.837	61112.83
294.064	61112.83
294.291	61112.83
294.518	61112.83
294.745	61112.83
294.972	61112.83
295.2	61112.83
295.427	61112.83
295.654	61112.83
295.881	61112.83
296.108	61112.83
296.335	61112.83
296.562	61112.83
296.789	61112.83
297.016	61112.83
297.243	61112.83
297.47	61112.83
297.697	61112.83
297.924	61112.83
298.151	61112.83
298.378	61112.83
298.604	61112.83
298.831	61112.83
299.058	61112.83
299.285	61112.83
299.512	61112.83
299.739	61112.83
299.966	61112.83
300.192	61112.83
300.419	61112.83
300.646	61112.83
300.873	61112.83
301.099	61112.83
301.326	61112.83
301.553	61112.83
301.78	61112.83
302.006	61112.83
302.233	61112.83
302.46	61112.83
302.686	61112.83
302.913	61112.83
303.14	61112.83
303.366	61112.83
303.593	61112.83
303.819	61112.83
304.046	61112.83
304.272	61112.83
304.499	61112.83
304.725	61112.83
304.952	61112.83
305.179	61112.83
305.405	61112.83
305.631	61112.83
305.858	61112.83
306.084	61112.83
306.311	61112.83
306.537	61112.83
306.764	61112.83
306.99	61112.83
307.216	61112.83
307.443	61112.83
307.669	61112.83
307.895	61112.83
308.122	61112.83
308.348	61112.83
308.574	61112.83
308.801	61112.83
309.027	61112.83
309.253	61112.83
309.479	61112.83
309.706	61112.83
309.932	61112.83
310.158	61112.83
310.384	61112.83
310.61	61112.83
310.837	61112.83
311.063	61112.83
311.289	61112.83
311.515	61112.83
311.741	61112.83
311.967	61112.83
312.193	61112.83
312.419	61112.83
312.645	61112.83
312.871	61112.83
313.097	61112.83
313.323	61112.83
313.549	61112.83
313.775	61112.83
314.001	61112.83
314.227	61112.83
314.453	61112.83
314.679	61112.83
314.905	61112.83
315.131	61112.83
315.357	61112.83
315.583	61112.83
315.809	61112.83
316.034	61112.83
316.26	61112.83
316.486	61112.83
316.712	61112.83
316.938	61112.83
317.163	61112.83
317.389	61112.83
317.615	61112.83
317.841	61112.83
318.066	61112.83
318.292	61112.83
318.518	61112.83
318.743	61112.83
318.969	61112.83
319.195	61112.83
319.42	61112.83
319.646	61112.83
319.872	61112.83
320.097	61112.83
320.323	61112.83
320.548	61112.83
320.774	61112.83
320.999	61112.83
321.225	61112.83
321.45	61112.83
321.676	61112.83
321.901	61112.83
322.127	61112.83
322.352	61112.83
322.578	61112.83
322.803	61112.83
323.029	61112.83
323.254	61112.83
323.479	61112.83
323.705	61112.83
323.93	61112.83
324.155	61112.83
324.381	61112.83
324.606	61112.83
324.831	61112.83
325.057	61112.83
325.282	61112.83
325.507	61112.83
325.732	61112.83
325.958	61112.83
326.183	61112.83
326.408	61112.83
326.633	61112.83
326.858	61112.83
327.084	61112.83
327.309	61112.83
327.534	61112.83
327.759	61112.83
327.984	61112.83
328.209	61112.83
328.434	61112.83
328.659	61112.83
328.884	61112.83
329.109	61112.83
329.334	61112.83
329.559	61112.83
329.784	61112.83
330.009	61112.83
330.234	61112.83
330.459	61112.83
330.684	61112.83
330.909	61112.83
331.134	61112.83
331.359	61112.83
331.584	61112.83
331.809	61112.83
332.034	61112.83
332.259	61112.83
332.483	61112.83
332.708	61112.83
332.933	61112.83
333.158	61112.83
333.383	61112.83
333.607	61112.83
333.832	61112.83
334.057	61112.83
334.282	61112.83
334.506	61112.83
334.731	61112.83
334.956	61112.83
335.18	61112.83
335.405	61112.83
335.63	61112.83
335.854	61112.83
336.079	61112.83
336.303	61112.83
336.528	61112.83
336.753	61112.83
336.977	61112.83
337.202	61112.83
337.426	61112.83
337.651	61112.83
337.875	61112.83
338.1	61112.83
338.324	61112.83
338.549	61112.83
338.773	61112.83
338.997	61112.83
339.222	61112.83
339.446	61112.83
339.671	61112.83
339.895	61112.83
340.119	61112.83
340.344	61112.83
340.568	61112.83
340.792	61112.83
341.017	61112.83
341.241	61112.83
341.465	61112.83
341.689	61112.83
341.914	61112.83
342.138	61112.83
342.362	61112.83
342.586	61112.83
342.811	61112.83
343.035	61112.83
343.259	61112.83
343.483	61112.83
343.707	61112.83
343.931	61112.83
344.155	61112.83
344.38	61112.83
344.604	61112.83
344.828	61112.83
345.052	61112.83
345.276	61112.83
345.5	61112.83
345.724	61112.83
345.948	61112.83
346.172	61112.83
346.396	61112.83
346.62	61112.83
346.844	61112.83
347.068	61112.83
347.292	61112.83
347.515	61112.83
347.739	61112.83
347.963	61112.83
348.187	61112.83
348.411	61112.83
348.635	61112.83
348.859	61112.83
349.082	61112.83
349.306	61112.83
349.53	61112.83
349.754	61112.83
349.977	61112.83
350.201	61112.83
350.425	61112.83
350.649	61112.83
350.872	61112.83
351.096	61112.83
351.32	61112.83
351.543	61112.83
351.767	61112.83
351.99	61112.83
352.214	61112.83
352.438	61112.83
352.661	61112.83
352.885	61112.83
353.108	61112.83
353.332	61112.83
353.555	61112.83
353.779	61112.83
354.002	61112.83
354.226	61112.83
354.449	61112.83
354.673	61112.83
354.896	61112.83
355.12	61112.83
355.343	61112.83
355.566	61112.83
355.79	61112.83
356.013	61112.83
356.237	61112.83
356.46	61112.83
356.683	61112.83
356.907	61112.83
357.13	61112.83
357.353	61112.83
357.576	61112.83
357.8	61112.83
358.023	61112.83
358.246	61112.83
358.469	61112.83
358.693	61112.83
358.916	61112.83
359.139	61112.83
359.362	61112.83
359.585	61112.83
359.808	61112.83
360.031	61112.83
360.255	61112.83
360.478	61112.83
360.701	61112.83
360.924	61112.83
361.147	61112.83
361.37	61112.83
361.593	61112.83
361.816	61112.83
362.039	61112.83
362.262	61112.83
362.485	61112.83
362.708	61112.83
362.931	61112.83
363.154	61112.83
363.377	61112.83
363.599	61112.83
363.822	61112.83
364.045	61112.83
364.268	61112.83
364.491	61112.83
364.714	61112.83
364.936	61112.83
365.159	61112.83
365.382	61112.83
365.605	61112.83
365.828	61112.83
366.05	61112.83
366.273	61112.83
366.496	61112.83
366.718	61112.83
366.941	61112.83
367.164	61112.83
367.386	61112.83
367.609	61112.83
367.832	61112.83
368.054	61112.83
368.277	61112.83
368.5	61112.83
368.722	61112.83
368.945	61112.83
369.167	61112.83
369.39	61112.83
369.612	61112.83
369.835	61112.83
370.057	61112.83
370.28	61112.83
370.502	61112.83
370.725	61112.83
370.947	61112.83
371.169	61112.83
371.392	61112.83
371.614	61112.83
371.837	61112.83
372.059	61112.83
372.281	61112.83
372.504	61112.83
372.726	61112.83
372.948	61112.83
373.171	61112.83
373.393	61112.83
373.615	61112.83
373.837	61112.83
374.06	61112.83
374.282	61112.83
374.504	61112.83
374.726	61112.83
374.948	61112.83
375.17	61112.83
375.393	61112.83
375.615	61112.83
375.837	61112.83
376.059	61112.83
376.281	61112.83
376.503	61112.83
376.725	61112.83
376.947	61112.83
377.169	61112.83
377.391	61112.83
377.613	61112.83
377.835	61112.83
378.057	61112.83
378.279	61112.83
378.501	61112.83
378.723	61112.83
378.945	61112.83
379.167	61112.83
379.389	61112.83
379.611	61112.83
379.833	61112.83
380.054	61112.83
380.276	61112.83
380.498	61112.83
380.72	61112.83
380.942	61112.83
381.163	61112.83
381.385	61112.83
381.607	61112.83
381.829	61112.83
382.05	61112.83
382.272	61112.83
382.494	61112.83
382.716	61112.83
382.937	61112.83
383.159	61112.83
383.381	61112.83
383.602	61112.83
383.824	61112.83
384.045	61112.83
384.267	61112.83
384.488	61112.83
384.71	61112.83
384.932	61112.83
385.153	61112.83
385.375	61112.83
385.596	61112.83
385.818	61112.83
386.039	61112.83
386.261	61112.83
386.482	61112.83
386.703	61112.83
386.925	61112.83
387.146	61112.83
387.368	61112.83
387.589	61112.83
387.81	61112.83
388.032	61112.83
388.253	61112.83
388.474	61112.83
388.696	61112.83
388.917	61112.83
389.138	61112.83
389.359	61112.83
389.581	61112.83
389.802	61112.83
390.023	61112.83
390.244	61112.83
390.465	61112.83
390.687	61112.83
390.908	61112.83
391.129	61112.83
391.35	61112.83
391.571	61112.83
391.792	61112.83
392.013	61112.83
392.234	61112.83
392.455	61112.83
392.677	61112.83
392.898	61112.83
393.119	61112.83
393.34	61112.83
393.561	61112.83
393.782	61112.83
394.003	61112.83
394.223	61112.83
394.444	61112.83
394.665	61112.83
394.886	61112.83
395.107	61112.83
395.328	61112.83
395.549	61112.83
395.77	61112.83
395.99	61112.83
396.211	61112.83
396.432	61112.83
396.653	61112.83
396.874	61112.83
397.094	61112.83
397.315	61112.83
397.536	61112.83
397.757	61112.83
397.977	61112.83
398.198	61112.83
398.419	61112.83
398.639	61112.83
398.86	61112.83
399.081	61112.83
399.301	61112.83
399.522	61112.83
399.742	61112.83
399.963	61112.83
400.184	61112.83
400.404	61112.83
400.625	61112.83
400.845	61112.83
401.066	61112.83
401.286	61112.83
401.507	61112.83
401.727	61112.83
401.948	61112.83
402.168	61112.83
402.388	61112.83
402.609	61112.83
402.829	61112.83
403.05	61112.83
403.27	61112.83
403.49	61112.83
403.711	61112.83
403.931	61112.83
404.151	61112.83
404.372	61112.83
404.592	61112.83
404.812	61112.83
405.032	61112.83
405.253	61112.83
405.473	61112.83
405.693	61112.83
405.913	61112.83
406.133	61112.83
406.353	61112.83
406.574	61112.83
406.794	61112.83
407.014	61112.83
407.234	61112.83
407.454	61112.83
407.674	61112.83
407.894	61112.83
408.114	61112.83
408.334	61112.83
408.554	61112.83
408.774	61112.83
408.994	61112.83
409.214	61112.83
409.434	61112.83
409.654	61112.83
409.874	61112.83
410.094	61112.83
410.314	61112.83
410.534	61112.83
410.754	61112.83
410.974	61112.83
411.193	61112.83
411.413	61112.83
411.633	61112.83
411.853	61112.83
412.073	61112.83
412.292	61112.83
412.512	61112.83
412.732	61112.83
412.952	61112.83
413.171	61112.83
413.391	61112.83
413.611	61112.83
413.831	61112.83
414.05	61112.83
414.27	61112.83
414.489	61112.83
414.709	61112.83
414.929	61112.83
415.148	61112.83
415.368	61112.83
415.587	61112.83
415.807	61112.83
416.026	61112.83
416.246	61112.83
416.465	61112.83
416.685	61112.83
416.904	61112.83
417.124	61112.83
417.343	61112.83
417.563	61112.83
417.782	61112.83
418.002	61112.83
418.221	61112.83
418.44	61112.83
418.66	61112.83
418.879	61112.83
419.098	61112.83
419.318	61112.83
419.537	61112.83
419.756	61112.83
419.976	61112.83
420.195	61112.83
420.414	61112.83
420.633	61112.83
420.853	61112.83
421.072	61112.83
421.291	61112.83
421.51	61112.83
421.729	61112.83
421.948	61112.83
422.168	61112.83
422.387	61112.83
422.606	61112.83
422.825	61112.83
423.044	61112.83
423.263	61112.83
423.482	61112.83
423.701	61112.83
423.92	61112.83
424.139	61112.83
424.358	61112.83
424.577	61112.83
424.796	61112.83
425.015	61112.83
425.234	61112.83
425.453	61112.83
425.672	61112.83
425.891	61112.83
426.11	61112.83
426.328	61112.83
426.547	61112.83
426.766	61112.83
426.985	61112.83
427.204	61112.83
427.422	61112.83
427.641	61112.83
427.86	61112.83
428.079	61112.83
428.297	61112.83
428.516	61112.83
428.735	61112.83
428.954	61112.83
429.172	61112.83
429.391	61112.83
429.61	61112.83
429.828	61112.83
