Data from background_MAYP1115451__3__09-36-00-550.txt Node

Date: Thu Jun 06 09:36:00 MDT 2024
User: Modes Lab
Spectrometer: MAYP111545
Trigger mode: 0
Integration Time (sec): 7.200000E-3
Scans to average: 1
Electric dark correction enabled: true
Nonlinearity correction enabled: false
Boxcar width: 0
XAxis mode: Wavelengths
Number of Pixels in Spectrum: 2068
>>>>>Begin Spectral Data<<<<<
165.214	1002.83
165.449	-192.17
165.683	34.83
165.918	-10.17
166.152	42.83
166.387	70.83
166.621	145.83
166.856	214.83
167.09	218.83
167.325	225.83
167.559	231.83
167.794	225.83
168.028	215.83
168.263	218.83
168.497	226.83
168.732	213.83
168.966	218.83
169.2	215.83
169.435	223.83
169.669	222.83
169.903	216.83
170.138	218.83
170.372	241.83
170.606	226.83
170.841	234.83
171.075	234.83
171.309	210.83
171.544	226.83
171.778	226.83
172.012	224.83
172.246	222.83
172.48	226.83
172.715	226.83
172.949	213.83
173.183	240.83
173.417	234.83
173.651	232.83
173.885	242.83
174.119	256.83
174.354	249.83
174.588	239.83
174.822	249.83
175.056	218.83
175.29	239.83
175.524	250.83
175.758	239.83
175.992	256.83
176.226	222.83
176.46	242.83
176.694	234.83
176.928	223.83
177.162	226.83
177.396	241.83
177.63	231.83
177.864	250.83
178.097	242.83
178.331	250.83
178.565	258.83
178.799	257.83
179.033	247.83
179.267	250.83
179.5	242.83
179.734	249.83
179.968	232.83
180.202	250.83
180.436	258.83
180.669	266.83
180.903	247.83
181.137	257.83
181.371	274.83
181.604	256.83
181.838	256.83
182.072	250.83
182.305	258.83
182.539	250.83
182.772	265.83
183.006	273.83
183.24	265.83
183.473	282.83
183.707	276.83
183.94	282.83
184.174	295.83
184.408	295.83
184.641	306.83
184.875	298.83
185.108	308.83
185.342	328.83
185.575	317.83
185.808	328.83
186.042	351.83
186.275	362.83
186.509	366.83
186.742	364.83
186.976	402.83
187.209	401.83
187.442	439.83
187.676	442.83
187.909	434.83
188.142	429.83
188.376	482.83
188.609	513.83
188.842	533.83
189.076	554.83
189.309	560.83
189.542	554.83
189.775	554.83
190.009	559.83
190.242	621.83
190.475	618.83
190.708	634.83
190.941	687.83
191.174	734.83
191.408	728.83
191.641	720.83
191.874	751.83
192.107	753.83
192.34	821.83
192.573	799.83
192.806	826.83
193.039	880.83
193.272	890.83
193.505	912.83
193.738	970.83
193.971	902.83
194.204	994.83
194.437	986.83
194.67	1044.83
194.903	1017.83
195.136	1024.83
195.369	1066.83
195.602	1120.83
195.835	1090.83
196.068	1108.83
196.301	1215.83
196.533	1162.83
196.766	1184.83
196.999	1182.83
197.232	1281.83
197.465	1289.83
197.698	1303.83
197.93	1374.83
198.163	1357.83
198.396	1434.83
198.629	1450.83
198.861	1455.83
199.094	1442.83
199.327	1466.83
199.559	1506.83
199.792	1537.83
200.025	1562.83
200.257	1631.83
200.49	1626.83
200.723	1662.83
200.955	1665.83
201.188	1744.83
201.42	1759.83
201.653	1770.83
201.886	1824.83
202.118	1889.83
202.351	1873.83
202.583	1938.83
202.816	2001.83
203.048	2050.83
203.281	2080.83
203.513	2055.83
203.745	2154.83
203.978	2165.83
204.21	2223.83
204.443	2264.83
204.675	2298.83
204.907	2306.83
205.14	2378.83
205.372	2438.83
205.605	2479.83
205.837	2527.83
206.069	2646.83
206.302	2665.83
206.534	2674.83
206.766	2754.83
206.998	2746.83
207.231	2833.83
207.463	2892.83
207.695	2922.83
207.927	3034.83
208.159	3063.83
208.392	3119.83
208.624	3202.83
208.856	3274.83
209.088	3311.83
209.32	3376.83
209.552	3407.83
209.784	3530.83
210.017	3521.83
210.249	3670.83
210.481	3721.83
210.713	3785.83
210.945	3906.83
211.177	4010.83
211.409	4010.83
211.641	4082.83
211.873	4210.83
212.105	4312.83
212.337	4302.83
212.569	4394.83
212.801	4498.83
213.033	4634.83
213.264	4678.83
213.496	4674.83
213.728	4776.83
213.96	4920.83
214.192	4966.83
214.424	5050.83
214.656	5145.83
214.887	5290.83
215.119	5450.83
215.351	5521.83
215.583	5634.83
215.815	5698.83
216.046	5850.83
216.278	5956.83
216.51	6002.83
216.741	6120.83
216.973	6277.83
217.205	6338.83
217.436	6568.83
217.668	6677.83
217.9	6720.83
218.131	6946.83
218.363	6978.83
218.595	7089.83
218.826	7226.83
219.058	7338.83
219.289	7434.83
219.521	7481.83
219.752	7615.83
219.984	7798.83
220.215	7921.83
220.447	7962.83
220.678	8223.83
220.91	8178.83
221.141	8385.83
221.373	8528.83
221.604	8639.83
221.836	8759.83
222.067	8962.83
222.298	9146.83
222.53	9362.83
222.761	9401.83
222.993	9474.83
223.224	9567.83
223.455	9754.83
223.686	9775.83
223.918	10002.83
224.149	10280.83
224.38	10410.83
224.612	10558.83
224.843	10638.83
225.074	10814.83
225.305	10882.83
225.536	11022.83
225.768	11234.83
225.999	11257.83
226.23	11352.83
226.461	11609.83
226.692	11650.83
226.923	11783.83
227.155	11962.83
227.386	12015.83
227.617	12074.83
227.848	12345.83
228.079	12414.83
228.31	12599.83
228.541	12682.83
228.772	12930.83
229.003	12975.83
229.234	13199.83
229.465	13273.83
229.696	13448.83
229.927	13466.83
230.158	13618.83
230.389	13743.83
230.62	13802.83
230.85	14157.83
231.081	14188.83
231.312	14274.83
231.543	14454.83
231.774	14586.83
232.005	14601.83
232.236	14834.83
232.466	14990.83
232.697	15168.83
232.928	15183.83
233.159	15426.83
233.389	15472.83
233.62	15602.83
233.851	15701.83
234.082	15857.83
234.312	15719.83
234.543	15809.83
234.774	16023.83
235.004	16143.83
235.235	16310.83
235.466	16378.83
235.696	16298.83
235.927	16343.83
236.157	16433.83
236.388	16626.83
236.618	16745.83
236.849	16832.83
237.08	16818.83
237.31	16930.83
237.541	17130.83
237.771	17054.83
238.002	17101.83
238.232	17306.83
238.463	17429.83
238.693	17448.83
238.923	17489.83
239.154	17550.83
239.384	17602.83
239.615	17781.83
239.845	17690.83
240.075	17573.83
240.306	17887.83
240.536	17952.83
240.766	17781.83
240.997	17898.83
241.227	18002.83
241.457	18242.83
241.687	18105.83
241.918	18141.83
242.148	18353.83
242.378	18186.83
242.608	18202.83
242.839	18367.83
243.069	18586.83
243.299	18426.83
243.529	18377.83
243.759	18426.83
243.989	18493.83
244.22	18392.83
244.45	18722.83
244.68	18642.83
244.91	18815.83
245.14	18841.83
245.37	18754.83
245.6	19004.83
245.83	18870.83
246.06	19080.83
246.29	18935.83
246.52	18995.83
246.75	19114.83
246.98	19134.83
247.21	18984.83
247.44	19186.83
247.67	19222.83
247.9	19225.83
248.13	19373.83
248.359	19487.83
248.589	19445.83
248.819	19410.83
249.049	19426.83
249.279	19589.83
249.509	19418.83
249.738	19531.83
249.968	19632.83
250.198	19660.83
250.428	19746.83
250.657	19738.83
250.887	19712.83
251.117	19689.83
251.347	19626.83
251.576	19890.83
251.806	19705.83
252.036	19898.83
252.265	19970.83
252.495	19850.83
252.725	19978.83
252.954	19933.83
253.184	20026.83
253.413	19927.83
253.643	20064.83
253.873	20066.83
254.102	19926.83
254.332	19882.83
254.561	19866.83
254.791	19910.83
255.02	20098.83
255.25	20133.83
255.479	20114.83
255.708	20170.83
255.938	20081.83
256.167	19994.83
256.397	20056.83
256.626	20061.83
256.856	20079.83
257.085	20060.83
257.314	20055.83
257.544	19953.83
257.773	19974.83
258.002	19920.83
258.232	19961.83
258.461	19850.83
258.69	20010.83
258.919	19778.83
259.149	19968.83
259.378	19774.83
259.607	19869.83
259.836	19751.83
260.065	19870.83
260.295	19842.83
260.524	19738.83
260.753	19813.83
260.982	19807.83
261.211	19746.83
261.44	19591.83
261.669	19626.83
261.899	19770.83
262.128	19730.83
262.357	19570.83
262.586	19576.83
262.815	19575.83
263.044	19698.83
263.273	19527.83
263.502	19582.83
263.731	19497.83
263.96	19409.83
264.189	19434.83
264.418	19562.83
264.646	19503.83
264.875	19344.83
265.104	19311.83
265.333	19432.83
265.562	19296.83
265.791	19455.83
266.02	19312.83
266.249	19263.83
266.477	19346.83
266.706	19178.83
266.935	19176.83
267.164	19127.83
267.393	19136.83
267.621	19152.83
267.85	19047.83
268.079	19041.83
268.307	18976.83
268.536	19086.83
268.765	19210.83
268.993	19063.83
269.222	19175.83
269.451	18914.83
269.679	18945.83
269.908	18896.83
270.137	19015.83
270.365	18930.83
270.594	19074.83
270.822	19042.83
271.051	19114.83
271.279	18983.83
271.508	19046.83
271.736	19132.83
271.965	19010.83
272.193	19038.83
272.422	19046.83
272.65	18920.83
272.879	19105.83
273.107	18937.83
273.336	18993.83
273.564	19230.83
273.792	19223.83
274.021	19119.83
274.249	19089.83
274.477	19170.83
274.706	19222.83
274.934	19120.83
275.162	19282.83
275.391	19310.83
275.619	19185.83
275.847	19071.83
276.075	19183.83
276.304	19325.83
276.532	19439.83
276.76	19190.83
276.988	19154.83
277.216	19376.83
277.445	19552.83
277.673	19362.83
277.901	19490.83
278.129	19424.83
278.357	19447.83
278.585	19524.83
278.813	19426.83
279.041	19573.83
279.269	19582.83
279.497	19617.83
279.725	19519.83
279.954	19596.83
280.182	19766.83
280.41	19751.83
280.637	19661.83
280.865	19719.83
281.093	19784.83
281.321	19816.83
281.549	19874.83
281.777	19882.83
282.005	19873.83
282.233	19914.83
282.461	19994.83
282.689	19946.83
282.916	19858.83
283.144	19882.83
283.372	20026.83
283.6	19990.83
283.828	19968.83
284.055	20194.83
284.283	20088.83
284.511	20114.83
284.739	20138.83
284.966	20114.83
285.194	20029.83
285.422	20016.83
285.649	20125.83
285.877	20106.83
286.105	20199.83
286.332	20202.83
286.56	20354.83
286.788	20193.83
287.015	20146.83
287.243	20145.83
287.47	20280.83
287.698	20386.83
287.925	20368.83
288.153	20365.83
288.381	20436.83
288.608	20297.83
288.836	20350.83
289.063	20401.83
289.29	20442.83
289.518	20497.83
289.745	20342.83
289.973	20505.83
290.2	20418.83
290.428	20378.83
290.655	20618.83
290.882	20711.83
291.11	20589.83
291.337	20455.83
291.564	20642.83
291.792	20514.83
292.019	20705.83
292.246	20514.83
292.473	20586.83
292.701	20592.83
292.928	20505.83
293.155	20610.83
293.382	20448.83
293.61	20693.83
293.837	20698.83
294.064	20634.83
294.291	20721.83
294.518	20672.83
294.745	20695.83
294.972	20562.83
295.2	20673.83
295.427	20592.83
295.654	20466.83
295.881	20653.83
296.108	20633.83
296.335	20478.83
296.562	20578.83
296.789	20585.83
297.016	20618.83
297.243	20596.83
297.47	20479.83
297.697	20533.83
297.924	20690.83
298.151	20464.83
298.378	20729.83
298.604	20520.83
298.831	20442.83
299.058	20448.83
299.285	20650.83
299.512	20441.83
299.739	20487.83
299.966	20528.83
300.192	20450.83
300.419	20521.83
300.646	20345.83
300.873	20306.83
301.099	20570.83
301.326	20266.83
301.553	20322.83
301.78	20258.83
302.006	20222.83
302.233	20225.83
302.46	20151.83
302.686	20210.83
302.913	20325.83
303.14	20018.83
303.366	20138.83
303.593	20088.83
303.819	20015.83
304.046	20082.83
304.272	19794.83
304.499	19906.83
304.725	19942.83
304.952	19802.83
305.179	19799.83
305.405	19842.83
305.631	19905.83
305.858	19658.83
306.084	19844.83
306.311	19737.83
306.537	19650.83
306.764	19615.83
306.99	19639.83
307.216	19582.83
307.443	19410.83
307.669	19573.83
307.895	19342.83
308.122	19360.83
308.348	19408.83
308.574	19320.83
308.801	19151.83
309.027	19169.83
309.253	19191.83
309.479	19029.83
309.706	18998.83
309.932	18887.83
310.158	19009.83
310.384	18887.83
310.61	19017.83
310.837	18943.83
311.063	18879.83
311.289	18785.83
311.515	18786.83
311.741	18754.83
311.967	18744.83
312.193	18746.83
312.419	18767.83
312.645	18626.83
312.871	18572.83
313.097	18446.83
313.323	18650.83
313.549	18544.83
313.775	18358.83
314.001	18309.83
314.227	18280.83
314.453	18292.83
314.679	18373.83
314.905	18298.83
315.131	18199.83
315.357	18134.83
315.583	18182.83
315.809	17946.83
316.034	18062.83
316.26	17766.83
316.486	17802.83
316.712	17946.83
316.938	17743.83
317.163	17695.83
317.389	17682.83
317.615	17566.83
317.841	17634.83
318.066	17666.83
318.292	17461.83
318.518	17752.83
318.743	17554.83
318.969	17418.83
319.195	17425.83
319.42	17298.83
319.646	17263.83
319.872	17121.83
320.097	17229.83
320.323	17184.83
320.548	17177.83
320.774	17066.83
320.999	17170.83
321.225	17063.83
321.45	16962.83
321.676	17078.83
321.901	16890.83
322.127	16937.83
322.352	16951.83
322.578	16909.83
322.803	16905.83
323.029	16842.83
323.254	16981.83
323.479	16692.83
323.705	16877.83
323.93	16730.83
324.155	16594.83
324.381	16647.83
324.606	16751.83
324.831	16575.83
325.057	16567.83
325.282	16501.83
325.507	16458.83
325.732	16506.83
325.958	16442.83
326.183	16397.83
326.408	16306.83
326.633	16330.83
326.858	16306.83
327.084	16230.83
327.309	16353.83
327.534	16198.83
327.759	16198.83
327.984	16178.83
328.209	16143.83
328.434	16176.83
328.659	16182.83
328.884	15985.83
329.109	15943.83
329.334	16072.83
329.559	15991.83
329.784	16129.83
330.009	16054.83
330.234	16002.83
330.459	15909.83
330.684	15892.83
330.909	15832.83
331.134	15818.83
331.359	15642.83
331.584	15656.83
331.809	15626.83
332.034	15690.83
332.259	15785.83
332.483	15593.83
332.708	15649.83
332.933	15529.83
333.158	15562.83
333.383	15599.83
333.607	15545.83
333.832	15453.83
334.057	15431.83
334.282	15493.83
334.506	15439.83
334.731	15362.83
334.956	15336.83
335.18	15228.83
335.405	15336.83
335.63	15224.83
335.854	15322.83
336.079	15354.83
336.303	15249.83
336.528	15295.83
336.753	15165.83
336.977	15061.83
337.202	15161.83
337.426	15186.83
337.651	15096.83
337.875	15054.83
338.1	14970.83
338.324	14966.83
338.549	14969.83
338.773	14922.83
338.997	14911.83
339.222	14814.83
339.446	14794.83
339.671	14794.83
339.895	14918.83
340.119	14791.83
340.344	14642.83
340.568	14778.83
340.792	14749.83
341.017	14657.83
341.241	14607.83
341.465	14684.83
341.689	14570.83
341.914	14632.83
342.138	14494.83
342.362	14442.83
342.586	14433.83
342.811	14394.83
343.035	14346.83
343.259	14456.83
343.483	14350.83
343.707	14373.83
343.931	14337.83
344.155	14346.83
344.38	14249.83
344.604	14098.83
344.828	14164.83
345.052	14118.83
345.276	14232.83
345.5	14042.83
345.724	14066.83
345.948	14034.83
346.172	14038.83
346.396	14049.83
346.62	13930.83
346.844	13977.83
347.068	13930.83
347.292	13961.83
347.515	13946.83
347.739	13807.83
347.963	13750.83
348.187	13682.83
348.411	13734.83
348.635	13610.83
348.859	13626.83
349.082	13466.83
349.306	13693.83
349.53	13504.83
349.754	13448.83
349.977	13554.83
350.201	13413.83
350.425	13409.83
350.649	13310.83
350.872	13473.83
351.096	13304.83
351.32	13297.83
351.543	13258.83
351.767	13224.83
351.99	13327.83
352.214	13226.83
352.438	13161.83
352.661	13066.83
352.885	13097.83
353.108	12986.83
353.332	12937.83
353.555	12994.83
353.779	12994.83
354.002	12838.83
354.226	12922.83
354.449	12822.83
354.673	12698.83
354.896	12745.83
355.12	12770.83
355.343	12807.83
355.566	12759.83
355.79	12623.83
356.013	12650.83
356.237	12552.83
356.46	12606.83
356.683	12578.83
356.907	12554.83
357.13	12430.83
357.353	12498.83
357.576	12414.83
357.8	12322.83
358.023	12356.83
358.246	12457.83
358.469	12272.83
358.693	12298.83
358.916	12250.83
359.139	12289.83
359.362	12209.83
359.585	12113.83
359.808	12142.83
360.031	12030.83
360.255	11991.83
360.478	12002.83
360.701	11831.83
360.924	11978.83
361.147	11936.83
361.37	11898.83
361.593	11934.83
361.816	11921.83
362.039	11969.83
362.262	11815.83
362.485	11842.83
362.708	11922.83
362.931	11800.83
363.154	11786.83
363.377	11838.83
363.599	11670.83
363.822	11610.83
364.045	11609.83
364.268	11641.83
364.491	11618.83
364.714	11653.83
364.936	11530.83
365.159	11497.83
365.382	11640.83
365.605	11571.83
365.828	11519.83
366.05	11552.83
366.273	11569.83
366.496	11580.83
366.718	11609.83
366.941	11620.83
367.164	11586.83
367.386	11510.83
367.609	11618.83
367.832	11482.83
368.054	11413.83
368.277	11453.83
368.5	11466.83
368.722	11418.83
368.945	11343.83
369.167	11440.83
369.39	11340.83
369.612	11265.83
369.835	11136.83
370.057	11130.83
370.28	11080.83
370.502	11143.83
370.725	11093.83
370.947	11114.83
371.169	11031.83
371.392	11110.83
371.614	11018.83
371.837	11064.83
372.059	11025.83
372.281	11144.83
372.504	11018.83
372.726	11010.83
372.948	10935.83
373.171	11025.83
373.393	11077.83
373.615	10999.83
373.837	10961.83
374.06	10978.83
374.282	10960.83
374.504	10985.83
374.726	11189.83
374.948	11167.83
375.17	11026.83
375.393	11050.83
375.615	11144.83
375.837	11152.83
376.059	11062.83
376.281	11106.83
376.503	11082.83
376.725	11034.83
376.947	11105.83
377.169	11128.83
377.391	11167.83
377.613	11334.83
377.835	11326.83
378.057	11345.83
378.279	11431.83
378.501	11356.83
378.723	11569.83
378.945	11592.83
379.167	11668.83
379.389	11637.83
379.611	11504.83
379.833	11394.83
380.054	11306.83
380.276	11314.83
380.498	11337.83
380.72	11349.83
380.942	11418.83
381.163	11250.83
381.385	11362.83
381.607	11329.83
381.829	11295.83
382.05	11362.83
382.272	11513.83
382.494	11588.83
382.716	11546.83
382.937	11473.83
383.159	11553.83
383.381	11434.83
383.602	11486.83
383.824	11354.83
384.045	11456.83
384.267	11496.83
384.488	11396.83
384.71	11493.83
384.932	11445.83
385.153	11464.83
385.375	11482.83
385.596	11362.83
385.818	11406.83
386.039	11501.83
386.261	11623.83
386.482	11597.83
386.703	11530.83
386.925	11550.83
387.146	11736.83
387.368	11982.83
387.589	12052.83
387.81	11986.83
388.032	12081.83
388.253	11988.83
388.474	12086.83
388.696	12002.83
388.917	11978.83
389.138	11838.83
389.359	11570.83
389.581	11642.83
389.802	11601.83
390.023	11583.83
390.244	11697.83
390.465	11650.83
390.687	11778.83
390.908	11754.83
391.129	11869.83
391.35	11893.83
391.571	11941.83
391.792	11986.83
392.013	12154.83
392.234	12269.83
392.455	12410.83
392.677	12593.83
392.898	12689.83
393.119	12669.83
393.34	12512.83
393.561	12490.83
393.782	12279.83
394.003	12146.83
394.223	12338.83
394.444	12384.83
394.665	12298.83
394.886	12354.83
395.107	12364.83
395.328	12361.83
395.549	12184.83
395.77	12226.83
395.99	12122.83
396.211	12384.83
396.432	12305.83
396.653	12383.83
396.874	12462.83
397.094	12688.83
397.315	12714.83
397.536	12768.83
397.757	12886.83
397.977	13015.83
398.198	13176.83
398.419	13301.83
398.639	13304.83
398.86	13233.83
399.081	13098.83
399.301	13058.83
399.522	12824.83
399.742	12842.83
399.963	12615.83
400.184	12567.83
400.404	12679.83
400.625	12576.83
400.845	12602.83
401.066	12729.83
401.286	12838.83
401.507	12634.83
401.727	12417.83
401.948	12389.83
402.168	12482.83
402.388	12501.83
402.609	12498.83
402.829	12569.83
403.05	12512.83
403.27	12512.83
403.49	12570.83
403.711	12661.83
403.931	12607.83
404.151	12783.83
404.372	12911.83
404.592	12833.83
404.812	12937.83
405.032	13161.83
405.253	13018.83
405.473	13134.83
405.693	13098.83
405.913	13087.83
406.133	12906.83
406.353	12885.83
406.574	12839.83
406.794	12608.83
407.014	12544.83
407.234	12473.83
407.454	12566.83
407.674	12530.83
407.894	12554.83
408.114	12696.83
408.334	12839.83
408.554	13050.83
408.774	12949.83
408.994	12911.83
409.214	12881.83
409.434	12912.83
409.654	12941.83
409.874	12918.83
410.094	13002.83
410.314	12834.83
410.534	12690.83
410.754	12648.83
410.974	12666.83
411.193	12736.83
411.413	12838.83
411.633	12776.83
411.853	12738.83
412.073	12969.83
412.292	13109.83
412.512	13273.83
412.732	13410.83
412.952	13471.83
413.171	13282.83
413.391	13401.83
413.611	13295.83
413.831	13210.83
414.05	13265.83
414.27	13048.83
414.489	12954.83
414.709	13146.83
414.929	13121.83
415.148	13090.83
415.368	13082.83
415.587	13014.83
415.807	13162.83
416.026	13138.83
416.246	13074.83
416.465	13196.83
416.685	13142.83
416.904	13095.83
417.124	13024.83
417.343	13150.83
417.563	13132.83
417.782	13112.83
418.002	12944.83
418.221	13066.83
418.44	13266.83
418.66	13255.83
418.879	13082.83
419.098	13250.83
419.318	13266.83
419.537	13352.83
419.756	13333.83
419.976	13242.83
420.195	13375.83
420.414	13672.83
420.633	13824.83
420.853	14138.83
421.072	13998.83
421.291	14218.83
421.51	14490.83
421.729	14633.83
421.948	14522.83
422.168	14514.83
422.387	14432.83
422.606	14221.83
422.825	14359.83
423.044	14208.83
423.263	14490.83
423.482	14388.83
423.701	14290.83
423.92	14172.83
424.139	14106.83
424.358	14017.83
424.577	14056.83
424.796	13998.83
425.015	14074.83
425.234	14007.83
425.453	14037.83
425.672	13941.83
425.891	13786.83
426.11	13610.83
426.328	13543.83
426.547	13658.83
426.766	13706.83
426.985	13968.83
427.204	14221.83
427.422	14412.83
427.641	14311.83
427.86	14256.83
428.079	14214.83
428.297	14018.83
428.516	14023.83
428.735	13978.83
428.954	14215.83
429.172	14330.83
429.391	14538.83
429.61	14791.83
429.828	14976.83
430.047	15214.83
430.265	15190.83
430.484	15093.83
430.703	14954.83
430.921	14967.83
431.14	14696.83
431.358	14670.83
431.577	14387.83
431.795	14062.83
432.014	14072.83
432.232	13946.83
432.451	13930.83
432.669	14042.83
432.887	14042.83
433.106	14166.83
